##TITLE=TEST
##JCAMP-DX=4.24
##DATA TYPE=MASS SPECTRUM
##XUNITS=M/Z
##YUNITS=RELATIVE ABUNDANCE
##FIRSTX=4.0058
##LASTX=34.2505
##FIRSTY=248.7503
##LASTY=9931184
##NPOINTS=10530
##PEAK TABLE=(XY..XY)
4.0058	16811.58
4.00867	837.751
4.01153	103.5574
4.01438	0
4.01725	0
4.02012	0
4.02298	0
4.02585	0
4.02872	0
4.03157	0
4.03443	248.7503
4.0373	744.5069
4.04017	1488.765
4.04303	3737.895
4.04588	5859.374
4.04875	9915.634
4.05162	11989.45
4.05448	16889.14
4.05735	23725.71
4.0602	26755.39
4.06307	30385.82
4.06593	35772.1
4.0688	43102.18
4.07167	47989.98
4.07453	57883.24
4.07738	58073.07
4.08025	60673.68
4.08312	65983.2
4.08598	80852.16
4.08885	87217.54
4.0917	126111.2
4.09457	262762.6
4.09743	716639.8
4.1003	1624417
4.10317	3063307
4.10603	4814877
4.10888	6667735
4.11175	8287426
4.11462	9503900
4.12035	9931184
4.12322	8975296
4.12607	7739824
4.12893	6367899
4.1318	4973586
4.13467	3801942
4.13753	2882940
4.1404	2137410
4.14327	1597999
4.14612	1226917
4.14898	931907.4
4.15185	753743.9
4.15472	623304.4
4.15758	523215.6
4.16045	473243.8
4.1633	432190.7
4.16617	411011.3
4.16903	406242
4.1719	380792.1
4.17477	383140.2
4.17762	391151.3
4.18048	379980.2
4.18335	366287.3
4.18622	347105.6
4.18908	336488.6
4.19195	320316
4.1948	300044.1
4.19767	290922.1
4.20053	262976.3
4.2034	248533.8
4.20627	235000.4
4.20913	221632.4
4.21198	210608.5
4.21485	193742.8
4.21772	174434.8
4.22058	179029.8
4.22345	171055.6
4.22632	159943.9
4.22917	157629.9
4.23203	153745.2
4.2349	154368.6
4.23777	144074.8
4.24063	142889.5
4.2435	144902.8
4.24635	137249.8
4.24922	134345.7
4.25208	131622.8
4.25495	145745.9
4.25782	127718.7
4.26068	122941.5
4.26353	125077.6
4.2664	128154.5
4.26927	121152.9
4.27213	106308.9
4.275	118149.5
4.27787	120841.9
4.28072	115966.1
4.28358	114592.3
4.28645	128875
4.28932	109237.4
4.29218	107839.5
4.29505	108048.9
4.2979	105040.8
4.30077	119537
4.30363	102089.5
4.3065	93701.88
4.30937	104357.6
4.31223	98257.51
4.31508	100324.1
4.31795	99422.73
4.32082	95002.5
4.32368	103458.1
4.32655	98996.73
4.3294	95976.07
4.33227	97044.93
4.33513	98776.02
4.338	95854.16
4.34087	92182.99
4.34373	91384.67
4.34658	92076.73
4.34945	92479.53
4.35232	90351.26
4.35518	93165.45
4.35805	90715.55
4.36092	94265.42
4.36377	91698.12
4.36663	85118.45
4.3695	82561.01
4.37237	83131.04
4.37523	83811.08
4.3781	89594.7
4.38095	82766.88
4.38382	85103.55
4.38668	80397.04
4.38955	84748.28
4.39242	70005.17
4.39528	84203.18
4.39813	79204.81
4.401	78345.34
4.40387	78654.44
4.40673	78296.64
4.4096	81514.57
4.41247	79946.75
4.41532	78436.1
4.41818	78959.55
4.42105	80502.89
4.42392	79425.39
4.42678	81374.18
4.42965	72772.57
4.4325	80856.35
4.43537	75597.06
4.43823	70337.45
4.4411	80574.38
4.44397	80954.3
4.44683	79861.95
4.44968	93153.41
4.45255	98844.22
4.45542	114651.8
4.45828	145389.5
4.46115	152460.8
4.464	172342.3
4.46687	182871.8
4.46973	171208.7
4.4726	171821.2
4.47547	179524.9
4.47833	158410.4
4.48118	149774.6
4.48405	137982.2
4.48692	131655.8
4.48978	127243.7
4.49265	120546.3
4.49552	114667.8
4.49837	105289.4
4.50123	102670.6
4.5041	111633.1
4.50697	99391.09
4.50983	97935.67
4.5127	90210.41
4.51555	95650.34
4.51842	96116.02
4.52128	87414.91
4.52415	85866.39
4.52702	77291.42
4.52988	85866.34
4.53273	90320.63
4.5356	95651.45
4.53847	94827.34
4.54133	97214.16
4.5442	104835.5
4.54707	118577.8
4.54992	117441.1
4.55278	116706.9
4.55565	115149.5
4.55852	127609
4.56138	117467.6
4.56425	111990.2
4.5671	110824.3
4.56997	100224.6
4.57283	98153.55
4.5757	107449.5
4.57857	102470.1
4.58143	102671.5
4.58428	100179.7
4.58715	88655.99
4.59002	93461.41
4.59288	94685.17
4.59575	90506.5
4.5986	92571.98
4.60147	82077.5
4.60433	81991.53
4.6072	83893.27
4.61007	86609.58
4.61293	82563.51
4.61578	84705.24
4.61865	77479.14
4.62152	81978.6
4.62438	79417.64
4.62725	70732.34
4.63012	74701.46
4.63297	78306.33
4.63583	78614.73
4.6387	78086.53
4.64157	73920.33
4.64443	73433.63
4.6473	71409.82
4.65015	73271.56
4.65302	75381.77
4.65588	73839.53
4.65875	70688.23
4.66162	69582.31
4.66448	71106.52
4.66733	72110.64
4.6702	61450.54
4.67307	66610.38
4.67593	71632.38
4.6788	67652.44
4.68167	64591.97
4.68452	66534.57
4.68738	68736.48
4.69025	73862.17
4.69312	70547.88
4.69598	67390.8
4.69885	70257.54
4.7017	69384.63
4.70457	64631.9
4.70743	69470.54
4.7103	67554.75
4.71317	60374.86
4.71603	63919.19
4.71888	68081.05
4.72175	69234.82
4.72462	61521.71
4.72748	63459.21
4.73035	57483.41
4.7332	61399.96
4.73607	60094.57
4.73893	63142.05
4.7418	63770
4.74467	63819.58
4.74753	65517.13
4.75038	58595.52
4.75325	59208.22
4.75612	65409.82
4.75898	63914.22
4.76185	59557.68
4.76472	62383.39
4.76757	62794.04
4.77043	61789.21
4.7733	57412.73
4.77617	59845.54
4.77903	61602.95
4.7819	55457.02
4.78475	55324.52
4.78762	60739.12
4.79048	55606.32
4.79335	58782.99
4.79622	56945.02
4.79908	56313.71
4.80193	61652.12
4.8048	58057.55
4.80767	66918.53
4.81053	62638.22
4.8134	58208.05
4.81627	59411.41
4.81912	57725.84
4.82198	57215.7
4.82485	59194.42
4.82772	61233.04
4.83058	58687.03
4.83345	54303.35
4.8363	52835.01
4.83917	58557.2
4.84203	62232.25
4.8449	56812.45
4.84777	58163.45
4.85063	58586.39
4.85348	57994.05
4.85635	57156.12
4.85922	54727.23
4.86208	56045.01
4.86495	60526.68
4.8678	61414.45
4.87067	63426.67
4.87353	60295.77
4.8764	62839.24
4.87927	67647.6
4.88213	60294.88
4.88498	60284.83
4.88785	57770.16
4.89072	60219.39
4.89358	56187.17
4.89645	58114.64
4.89932	58194.18
4.90217	54670.4
4.90503	64776.22
4.9079	58449.64
4.91077	56149.51
4.91363	53960.65
4.9165	57750.02
4.91935	57044.48
4.92222	60726.59
4.92508	53118.45
4.92795	55836.44
4.93082	55180.54
4.93368	49903.93
4.93653	52544.23
4.9394	55179.9
4.94227	54080.23
4.94513	57039.84
4.948	54536.93
4.95087	53160.45
4.95372	52650.03
4.95658	54013.82
4.95945	54844.78
4.96232	57606.83
4.96518	53441.25
4.96805	52177.79
4.9709	52594.7
4.97377	55822.49
4.97663	51414.03
4.9795	48212.55
4.98237	50541.04
4.98523	47921.95
4.98808	49998.03
4.99095	53171.79
4.99382	51352.63
4.99668	56236.37
4.99955	54503.7
5.00242	54368.13
5.00527	53566.54
5.00813	53096.8
5.011	50987.69
5.01387	55902.47
5.01673	53112.18
5.01958	51295.46
5.02245	49895.83
5.02532	49606.14
5.02818	47884.88
5.03105	49172.45
5.03392	49793.33
5.03677	53091.16
5.03963	50794.19
5.0425	54049.93
5.04537	50448.29
5.04823	55761.04
5.0511	52281.77
5.05395	53173.2
5.05682	50289.56
5.05968	54316.82
5.06255	48318.55
5.06542	51383.87
5.06828	56125.03
5.07113	52967.25
5.074	52236.16
5.07687	55498.5
5.07973	50141.73
5.0826	54148.51
5.08547	51460.13
5.08832	54993.99
5.09118	50592.2
5.09405	51312.68
5.09692	54725.52
5.09978	55587.52
5.10265	53605.36
5.1055	50595.86
5.10837	50922.8
5.11123	52305.54
5.1141	49017.75
5.11697	60233.94
5.11983	57666.29
5.12268	56232.52
5.12555	49396.13
5.12842	54868.09
5.13128	58238.26
5.13415	58958.55
5.13702	58772.77
5.13987	57016.91
5.14273	62645.29
5.1456	60740.82
5.14847	66634.43
5.15133	52134.11
5.15418	55730.59
5.15705	55804.29
5.15992	58921.69
5.16278	57469.47
5.16565	52920.18
5.16852	58678.51
5.17137	57198.19
5.17423	58809.62
5.1771	56164.8
5.17997	54595.78
5.18283	56745.32
5.1857	53295.55
5.18855	50102.16
5.19142	53863.98
5.19428	58031.55
5.19715	53766.68
5.20002	57679.22
5.20288	53439.93
5.20573	49178.21
5.2086	53188.53
5.21147	54794
5.21433	61005.91
5.2172	57479.21
5.22007	46671.79
5.22292	48481
5.22578	53933.81
5.22865	52628.95
5.23152	48615.98
5.23438	50095.29
5.23725	48870.37
5.2401	52100.23
5.24297	51572.56
5.24583	52264.69
5.2487	52360.36
5.25157	58426.82
5.25443	55001.91
5.25728	57534.6
5.26015	64028
5.26302	69624.93
5.26588	75865.81
5.26875	86460.55
5.27162	88770.09
5.27447	87883.95
5.27733	92894.34
5.2802	94390.13
5.28307	101219.7
5.28593	90812.27
5.28878	94916.7
5.29165	95447.83
5.29452	83229.66
5.29738	85794.13
5.30025	79143.83
5.30312	76803.91
5.30597	78887.54
5.30883	80548.17
5.3117	72738.16
5.31457	68424.48
5.31743	72347.02
5.3203	71697.81
5.32315	74356.01
5.32602	63795.43
5.32888	64841.58
5.33175	64573.37
5.33462	65566.55
5.33748	64412.43
5.34033	61146.28
5.3432	63164.61
5.34607	57016.89
5.34893	64552.81
5.3518	59227.59
5.35467	59994.61
5.35752	56116.51
5.36038	57498.22
5.36325	53376.27
5.36612	58650.44
5.36898	52231
5.37185	51806.37
5.3747	53429.65
5.37757	55447.13
5.38043	51646.97
5.3833	55903.3
5.38617	56027.49
5.38903	57982.23
5.39188	56843.13
5.39475	58562.37
5.39762	56108.26
5.40048	56469.66
5.40335	55885.54
5.40622	57855.32
5.40907	62362.94
5.41193	63697.59
5.4148	73743.33
5.41767	82078.23
5.42053	76595.45
5.42338	94770.03
5.42625	91223.86
5.42912	100686.2
5.43198	100987
5.43485	95013.16
5.43772	95138.41
5.44057	94649.53
5.44343	85972.21
5.4463	87254.27
5.44917	80757.84
5.45203	83898.58
5.4549	76817.22
5.45775	71447.22
5.46062	67534.63
5.46348	70253.3
5.46635	64214.29
5.46922	68930.07
5.47208	56691.63
5.47493	66517.45
5.4778	59690.22
5.48067	56134.64
5.48353	72738.23
5.4864	58426.16
5.48927	57041.98
5.49212	57447.43
5.49498	62217.41
5.49785	54705.84
5.50072	50992.59
5.50358	55876.04
5.50645	53911.99
5.5093	65268.49
5.51217	55648.38
5.51503	54694.17
5.5179	56116.75
5.52077	51678.84
5.52363	59324.21
5.52648	57987.76
5.52935	55376.66
5.53222	51225.15
5.53508	52832.51
5.53795	49774.23
5.54082	61570.04
5.54367	59964.24
5.54653	49850.71
5.5494	49610.64
5.55227	50377.56
5.55513	52142.73
5.55798	49919.35
5.56085	51371.57
5.56372	49101.29
5.56658	48518.64
5.56945	50945.55
5.57232	53182.02
5.57517	50879.97
5.57803	51658.56
5.5809	50010.29
5.58377	50668.02
5.58663	46279.3
5.5895	47472.97
5.59235	50472.37
5.59522	50340.34
5.59808	52053.79
5.60095	46009.82
5.60382	51481.29
5.60668	51612.66
5.60953	53214.2
5.6124	57370.27
5.61527	62536.24
5.61813	68968.52
5.621	80347.55
5.62387	91645.91
5.62672	87743.77
5.62958	97492.95
5.63245	98114.13
5.63532	93277.13
5.63818	96618.77
5.64105	95047.15
5.6439	94385.72
5.64677	96626.88
5.64963	90556.12
5.6525	91090.12
5.65537	81811.48
5.65823	80068.95
5.66108	80869.46
5.66395	78491.38
5.66682	80207.81
5.66968	78794.45
5.67255	73317.78
5.67542	71764.63
5.67827	75877.97
5.68113	74760.55
5.684	71964.05
5.68687	69252.27
5.68973	71348.7
5.6926	66140.22
5.69545	68459.21
5.69832	61931.68
5.70118	60945.97
5.70405	63271.72
5.70692	62910.13
5.70977	68289.84
5.71263	64369.4
5.7155	61441.19
5.71837	60392.82
5.72123	62530.45
5.7241	63346.28
5.72695	62945.89
5.72982	55883.18
5.73268	61131.63
5.73555	62924.16
5.73842	58646.38
5.74128	59783.02
5.74413	60876.8
5.747	57950.96
5.74987	57795.28
5.75273	57775.26
5.7556	56714.1
5.75847	56946.45
5.76132	57868.32
5.76418	55030.92
5.76705	56499.24
5.76992	54347.99
5.77278	56025.27
5.77565	56742.54
5.7785	53704.37
5.78137	58047.04
5.78423	56817.95
5.7871	60140.89
5.78997	60719.73
5.79283	60159.3
5.79568	56207.46
5.79855	54991.45
5.80142	56445.99
5.80428	59390.43
5.80715	53924.45
5.81002	55334.86
5.81287	55288.25
5.81573	53512.89
5.8186	51224.8
5.82147	55270.48
5.82433	52754.76
5.8272	54006.77
5.83005	56119.06
5.83292	57544.89
5.83578	55451.42
5.83865	53518.97
5.84152	48557.08
5.84437	54388.53
5.84723	53994.92
5.8501	55406.36
5.85297	52678.25
5.85583	51714.88
5.8587	55128.04
5.86155	55216.15
5.86442	55507.57
5.86728	48232.22
5.87015	55083.15
5.87302	63663.59
5.87588	49442.39
5.87873	50993.97
5.8816	48777.92
5.88447	48391.5
5.88733	51828.67
5.8902	51055.41
5.89307	51782.5
5.89592	51069.81
5.89878	50219.71
5.90165	56389.66
5.90452	52298.93
5.90738	63073.13
5.91025	50163.47
5.9131	59270.89
5.91597	55165.28
5.91883	56789.07
5.9217	48843.45
5.92457	48588.39
5.92743	50800.98
5.93028	48923.53
5.93315	50385.58
5.93602	55676.88
5.93888	52682.66
5.94175	51795.61
5.94462	56916.52
5.94747	51715.2
5.95033	53669.74
5.9532	54292.17
5.95607	58357.47
5.95893	57233.59
5.9618	52023.03
5.96465	49389.1
5.96752	63887.84
5.97038	54972.48
5.97325	52511.21
5.97612	52417.55
5.97897	55802.61
5.98183	51301.3
5.9847	53828.74
5.98757	47266.45
5.99043	48479.96
5.9933	52146.03
5.99615	55911
5.99902	54367.31
6.00188	57366.61
6.00475	64153.63
6.00762	68275.33
6.01048	63305.79
6.01333	71484.59
6.0162	70113.76
6.01907	75198.33
6.02193	79969.29
6.0248	76924.55
6.02767	71346.27
6.03052	71460.88
6.03338	70218.63
6.03625	70896.02
6.03912	69044.41
6.04198	68763.88
6.04485	65101.71
6.0477	64111.05
6.05057	63308.55
6.05343	59646.98
6.0563	61462.38
6.05917	57503.79
6.06203	64214.18
6.06488	58537.16
6.06775	60403.89
6.07062	61318.48
6.07348	58995.88
6.07635	60239.27
6.07922	56303.09
6.08207	55757.77
6.08493	57125.04
6.0878	60034.86
6.09067	56082.21
6.09353	53080.54
6.0964	52150.88
6.09925	56095.98
6.10212	53205.96
6.10498	58081.49
6.10785	53311.14
6.11072	55604.12
6.11357	53217.29
6.11643	54927.89
6.1193	53501.73
6.12217	53099.93
6.12503	57860.3
6.1279	51518.21
6.13075	51670.38
6.13362	52481.78
6.13648	54385.71
6.13935	54792.82
6.14222	57175.62
6.14508	56464.63
6.14793	48489.07
6.1508	55057.18
6.15367	51746.69
6.15653	52966.57
6.1594	52774.64
6.16227	54433.21
6.16512	46847.87
6.16798	52561.02
6.17085	57237.32
6.17372	52150.67
6.17658	52387.96
6.17945	52734.61
6.1823	55982.95
6.18517	54142.8
6.18803	50475.07
6.1909	53195.96
6.19377	49286.1
6.19663	52848.63
6.19948	57799.6
6.20235	57219.83
6.20522	61747.45
6.20808	80806.91
6.21095	93778.52
6.21382	122468.6
6.21667	157996
6.21953	186000.1
6.2224	209331.1
6.22527	237993.7
6.22813	235346.9
6.231	235958
6.23385	213182
6.23672	213097.7
6.23958	194188.7
6.24245	191242.5
6.24532	165651.5
6.24817	148831
6.25103	147195.7
6.2539	121228.2
6.25677	115768.8
6.25963	109524
6.2625	103711.7
6.26535	92662.34
6.26822	86755.49
6.27108	90120.38
6.27395	80747.21
6.27682	90484.23
6.27968	85342.36
6.28253	80156.46
6.2854	82709.67
6.28827	78849
6.29113	78978.78
6.294	77582.58
6.29687	78401.95
6.29972	83500.95
6.30258	83853.86
6.30545	77362.85
6.30832	73044.8
6.31118	77582.55
6.31405	80344.6
6.3169	78287.4
6.31977	75218.81
6.32263	70592.39
6.3255	77654.92
6.32837	96153.44
6.33123	114174.3
6.33408	133913.6
6.33695	166307.9
6.33982	186059.6
6.34268	203593.4
6.34555	214368.2
6.34842	209308.3
6.35127	211178.3
6.35413	216550.3
6.357	194207.2
6.35987	190918.4
6.36273	169637.9
6.3656	160105.3
6.36845	168439.4
6.37132	162022.4
6.37418	152641.6
6.37705	150466.8
6.37992	132007.8
6.38277	125922.6
6.38563	121935.6
6.3885	115161.5
6.39137	110209.3
6.39423	109848.4
6.3971	105370.8
6.39995	99001.61
6.40282	100221
6.40568	83765.25
6.40855	95679.12
6.41142	87906.3
6.41428	77337.88
6.41713	88488.95
6.42	77777.21
6.42287	74379.4
6.42573	82986.48
6.4286	77030.73
6.43147	77814.48
6.43432	70732.41
6.43718	71938.37
6.44005	69717.45
6.44292	68986.54
6.44578	71755.38
6.44865	73476.6
6.4515	67464.25
6.45437	61967.5
6.45723	66199.66
6.4601	66497.19
6.46297	70448.88
6.46583	67790.79
6.46868	70136.71
6.47155	70421.58
6.47442	71412.02
6.47728	69181.4
6.48015	67983.61
6.48302	75303.94
6.48587	83801.35
6.48873	79469.2
6.4916	85539.82
6.49447	106271.4
6.49733	114716.6
6.5002	115701.3
6.50305	130610.8
6.50592	125685.5
6.50878	145762.3
6.51165	147830.7
6.51452	133712
6.51738	133348.5
6.52023	137672.8
6.5231	123833
6.52597	125333.4
6.52883	115731.9
6.5317	122876.7
6.53455	114195.1
6.53742	99598.46
6.54028	98206.04
6.54315	97868.24
6.54602	92484.53
6.54888	92860.68
6.55173	91088.41
6.5546	86279.96
6.55747	85168.21
6.56033	82980.5
6.5632	78615.2
6.56607	85164.56
6.56892	77538.52
6.57178	73770.96
6.57465	78582.98
6.57752	79638.87
6.58038	87076.02
6.58325	71827.87
6.5861	68245.58
6.58897	67411.41
6.59183	66645.42
6.5947	70099.23
6.59757	67059.65
6.60043	71344.77
6.60328	72646.59
6.60615	65505.02
6.60902	71536.95
6.61188	72052.76
6.61475	74919.02
6.61762	76198.23
6.62047	70316.98
6.62333	66252.72
6.6262	66273.92
6.62907	67501.23
6.63193	67428.26
6.6348	64959.43
6.63765	59590.88
6.64052	62772.29
6.64338	56058.45
6.64625	59335.09
6.64912	57250.64
6.65198	72345.55
6.65483	63151.11
6.6577	61900.79
6.66057	57861.26
6.66343	60609.31
6.6663	57134.95
6.66915	57955.51
6.67202	58431.23
6.67488	54889.56
6.67775	57835.02
6.68062	57013.66
6.68348	61810.46
6.68633	58740.63
6.6892	56343.89
6.69207	56813.96
6.69493	57037.7
6.6978	55173.85
6.70067	56717.56
6.70352	58729.21
6.70638	56285.4
6.70925	53838.63
6.71212	54315.71
6.71498	53560.51
6.71785	59707.68
6.7207	61823.64
6.72357	54765.5
6.72643	60654.27
6.7293	55346.18
6.73217	59191.35
6.73503	55997.88
6.73788	50880.86
6.74075	54570.06
6.74362	49489.64
6.74648	54833.91
6.74935	51823.59
6.75222	51324.36
6.75507	46430.5
6.75793	54509
6.7608	48959.13
6.76367	49281.48
6.76653	49337.41
6.7694	50134.75
6.77225	55586.45
6.77512	52934.77
6.77798	51419.02
6.78085	56022.12
6.78372	50334.84
6.78658	52579.72
6.78943	55868.33
6.7923	54254.27
6.79517	52919.87
6.79803	53885.31
6.8009	48531.16
6.80375	54882.22
6.80662	57652.81
6.80948	56108.1
6.81235	57818.31
6.81522	57076.66
6.81808	52305.04
6.82093	50769.37
6.8238	55538.68
6.82667	55172.24
6.82953	48826.12
6.8324	55109.26
6.83527	52255.49
6.83812	50830.46
6.84098	45885.83
6.84385	49369.86
6.84672	48502.61
6.84958	47453.54
6.85245	50668.75
6.8553	51543.72
6.85817	51778.48
6.86103	57250.11
6.8639	55269.93
6.86677	56143.09
6.86963	58789.36
6.87248	50148.27
6.87535	54058.87
6.87822	54242.09
6.88108	59456.06
6.88395	54311.6
6.88682	60420.13
6.88967	57113.59
6.89253	56312.85
6.8954	52985.04
6.89827	56095.95
6.90113	55961.25
6.904	54521.84
6.90685	56465.79
6.90972	54511.78
6.91258	53166.89
6.91545	62217.88
6.91832	56583.32
6.92118	48804.85
6.92403	50118.77
6.9269	56719.98
6.92977	54635.21
6.93263	50767.39
6.9355	55523.65
6.93835	52377.27
6.94122	47994.74
6.94408	49878.74
6.94695	50435.1
6.94982	52667.91
6.95268	51095.99
6.95553	48921
6.9584	52524.24
6.96127	53476.42
6.96413	44608.36
6.967	51535.6
6.96987	48564.5
6.97272	57250.72
6.97558	50704.75
6.97845	49631.71
6.98132	49040
6.98418	47612.96
6.98705	50760.21
6.9899	46962.15
6.99277	47881.16
6.99563	50825.52
6.9985	52414.13
7.00137	54211.08
7.00423	52306.04
7.00708	53416.2
7.00995	53122.87
7.01282	50694.48
7.01568	46256.12
7.01855	46781.55
7.02142	47417.34
7.02427	52177.7
7.02713	50700.91
7.03	56269.07
7.03287	50624.7
7.03573	50205.04
7.0386	50756
7.04145	46797.99
7.04432	54362.43
7.04718	53555.03
7.05005	51869.61
7.05292	52457.64
7.05578	47029.77
7.05863	49454.73
7.0615	52215.36
7.06437	53529.34
7.06723	50376.59
7.0701	43632.61
7.07295	46781.79
7.07582	47902.69
7.07868	46818.28
7.08155	48106.64
7.08442	45437.34
7.08728	48035.94
7.09013	53516.38
7.093	48502.08
7.09587	48735.57
7.09873	49543.87
7.1016	50944.49
7.10447	56344.75
7.10732	55415.15
7.11018	52872.63
7.11305	49677.99
7.11592	55257.37
7.11878	59854.77
7.12165	52301.72
7.1245	51337.84
7.12737	56158.22
7.13023	54865.38
7.1331	54930.47
7.13597	48048.29
7.13883	52038.46
7.14168	53891.8
7.14455	58809.06
7.14742	64644.83
7.15028	84667.86
7.15315	111311.8
7.15602	159094.8
7.15887	211194.6
7.16173	257792.8
7.1646	275467.4
7.16747	279454
7.17033	285531.6
7.1732	245448
7.17605	235141.9
7.17892	211018.7
7.18178	192525.1
7.18465	161388.1
7.18752	143871.3
7.19038	144767.2
7.19323	118414
7.1961	116428.4
7.19897	113770.8
7.20183	112098.5
7.2047	106313.6
7.20757	102475.3
7.21042	108280
7.21328	109026.9
7.21615	115952.8
7.21902	130523
7.22188	142996.7
7.22473	147135.8
7.2276	151651.8
7.23047	137249.1
7.23333	129223.8
7.2362	134970.1
7.23907	120084.6
7.24192	115985.9
7.24478	118955.3
7.24765	101616.2
7.25052	97630.38
7.25338	91242
7.25625	84052.22
7.2591	81646.74
7.26197	79864.99
7.26483	75122.93
7.2677	80610.29
7.27057	72087.42
7.27343	70485.19
7.27628	68571.57
7.27915	66603.51
7.28202	67524.98
7.28488	63706.27
7.28775	65884.66
7.29062	64212.76
7.29347	63407.73
7.29633	60801.21
7.2992	65410.91
7.30207	61781.39
7.30493	63134.18
7.3078	55729.64
7.31065	54960.67
7.31352	55167.56
7.31638	57120.43
7.31925	61149.41
7.32212	54354.25
7.32498	55683.97
7.32783	51659.79
7.3307	50216.26
7.33357	53404.36
7.33643	60574.79
7.3393	51821.31
7.34217	63836.23
7.34502	74088.42
7.34788	81928.29
7.35075	98560.84
7.35362	109725.5
7.35648	114390.7
7.35933	126194
7.3622	133261
7.36507	137282.2
7.36793	127137
7.3708	117062
7.37367	125969.1
7.37652	111913.8
7.37938	108531.9
7.38225	111773.3
7.38512	106712.2
7.38798	103515.9
7.39085	101046.7
7.3937	102774.6
7.39657	103508.6
7.39943	109480.2
7.4023	114341.8
7.40517	107728.3
7.40803	104011.3
7.41088	113360
7.41375	123554.1
7.41662	105317.2
7.41948	102288.5
7.42235	100271.1
7.42522	102402.7
7.42807	101621.7
7.43093	109345.1
7.4338	99683.36
7.43667	98272.52
7.43953	101255.9
7.4424	96557.55
7.44525	94050.11
7.44812	99374.6
7.45098	94814.24
7.45385	102013.5
7.45672	96357.7
7.45958	94530.4
7.46243	100047.1
7.4653	103953.9
7.46817	111374.8
7.47103	121082.2
7.4739	124003.5
7.47677	143464.7
7.47962	176913.2
7.48248	206650.1
7.48535	233857.4
7.48822	267926.8
7.49108	276539.7
7.49393	270517.8
7.4968	281539
7.49967	274817.7
7.50253	254756.6
7.5054	249713
7.50827	218279.9
7.51112	212696.7
7.51398	197447.4
7.51685	175502.5
7.51972	170820.9
7.52258	151106.7
7.52545	143799
7.5283	133107.3
7.53117	126138.5
7.53403	122427.2
7.5369	106592.2
7.53977	111103.7
7.54263	105679.5
7.54548	106194.7
7.54835	93407.43
7.55122	89559.78
7.55408	89207.57
7.55695	95552.55
7.55982	88269.6
7.56267	85695.4
7.56553	88164.66
7.5684	85410.95
7.57127	83379.31
7.57413	76533.48
7.577	82201.4
7.57985	82555.86
7.58272	79532.63
7.58558	82513.64
7.58845	72006.88
7.59132	78192.51
7.59418	76842.36
7.59703	76903.34
7.5999	83064.9
7.60277	78388.4
7.60563	71246.55
7.6085	74513.52
7.61137	73374.66
7.61422	76605.48
7.61708	70551.55
7.61995	74319.33
7.62282	80787.92
7.62568	71191.08
7.62853	78705.7
7.6314	69038.98
7.63427	71951.16
7.63713	73982.18
7.64	72738.83
7.64287	72882.31
7.64572	67077.74
7.64858	74532.82
7.65145	64931.65
7.65432	71001.38
7.65718	69094.72
7.66005	69305.74
7.6629	67308.73
7.66577	67756.63
7.66863	66779.88
7.6715	66237.38
7.67437	65248.55
7.67723	67724.48
7.68008	66373.63
7.68295	66266.16
7.68582	64504
7.68868	67678.61
7.69155	74322.12
7.69442	65788.35
7.69727	67717.28
7.70013	63667.86
7.703	64122.75
7.70587	63279.21
7.70873	66542.75
7.7116	65341.65
7.71445	64271.62
7.71732	66107.81
7.72018	70996.62
7.72305	70832.55
7.72592	70040.84
7.72878	59326.11
7.73163	66063.09
7.7345	62340.37
7.73737	64204.21
7.74023	66757.59
7.7431	72065.06
7.74597	68057.73
7.74882	69127.63
7.75168	67647.1
7.75455	69349.7
7.75742	72225.79
7.76028	65015.87
7.76313	68981.8
7.766	73064.91
7.76887	71174.02
7.77173	64441.07
7.7746	69428.99
7.77747	68395.67
7.78032	69119.75
7.78318	68928.75
7.78605	65614.38
7.78892	74420.62
7.79178	65198.21
7.79465	67564.98
7.7975	72010.94
7.80037	75165.53
7.80323	70772.51
7.8061	64764.51
7.80897	70463.92
7.81183	73192.94
7.81468	66797.06
7.81755	65019.85
7.82042	65610.82
7.82328	70480.11
7.82615	72754.46
7.82902	77840.23
7.83187	90856.98
7.83473	97343.7
7.8376	118635.4
7.84047	126392.9
7.84333	158098.7
7.8462	172413.7
7.84905	172154.5
7.85192	180619.9
7.85478	184897.8
7.85765	175418.8
7.86052	169269
7.86338	152333.8
7.86623	163086
7.8691	155440.9
7.87197	164788.2
7.87483	150680.2
7.8777	154207.7
7.88057	136797.1
7.88342	134844.8
7.88628	121862.2
7.88915	112840.7
7.89202	118050.7
7.89488	103987.4
7.89775	100129.8
7.9006	99559.89
7.90347	90757.98
7.90633	90083.13
7.9092	94350.44
7.91207	86311.65
7.91492	90725.82
7.91778	94568.49
7.92065	98274.1
7.92352	87186.37
7.92638	84524.56
7.92925	88691.11
7.9321	84561.59
7.93497	88578.4
7.93783	88840.53
7.9407	86407.02
7.94357	84565.41
7.94643	81828.55
7.94928	83463.67
7.95215	87798.23
7.95502	84438.28
7.95788	87512.57
7.96075	79291.83
7.96362	78472.38
7.96647	80775.38
7.96933	88439.92
7.9722	107349.6
7.97507	121246
7.97793	164739.2
7.9808	208579.1
7.98365	246378.8
7.98652	313566.9
7.98938	329802.7
7.99225	309850.3
7.99512	313043.6
7.99798	297524
8.00083	271396.9
8.0037	252147.3
8.00657	222169.6
8.00943	205514.3
8.0123	180815.6
8.01517	173404.8
8.01802	163962.2
8.02088	150873
8.02375	141060.9
8.02662	131777.6
8.02948	124142.3
8.03235	118564.4
8.0352	117877.1
8.03807	110328.2
8.04093	110545.2
8.0438	103446.8
8.04667	109848.5
8.04952	106437.3
8.05238	101295.5
8.05525	98417.51
8.05812	101872.1
8.06098	102017.3
8.06385	97671.93
8.0667	101830.9
8.06957	94704.59
8.07243	94009.43
8.0753	92155.4
8.07817	82699.97
8.08103	84393.76
8.08388	80565.25
8.08675	83498.91
8.08962	85633.07
8.09248	83900.96
8.09535	84215.61
8.09822	88058.2
8.10107	85670.38
8.10393	78566.85
8.1068	76586.16
8.10967	74410.53
8.11253	77375.13
8.1154	80015.88
8.11825	87498.71
8.12112	71893.82
8.12398	82247.97
8.12685	77990.46
8.12972	80901.56
8.13258	77455.89
8.13543	76165.43
8.1383	81896.86
8.14117	76329.92
8.14403	90938.8
8.1469	89434.16
8.14977	83409.37
8.15262	82325.1
8.15548	85431.92
8.15835	80119.54
8.16122	83198.4
8.16408	82535.25
8.16695	80824.44
8.1698	88388.01
8.17267	90937.12
8.17553	87446.67
8.1784	87503.27
8.18127	85469.52
8.18412	93899.48
8.18698	89835.09
8.18985	96775.64
8.19272	89728.23
8.19558	96145.98
8.19845	100021.5
8.2013	95678.84
8.20417	103085.5
8.20703	97170.23
8.2099	95338.3
8.21277	99035.41
8.21563	102808.1
8.21848	99083.93
8.22135	101713.5
8.22422	102336
8.22708	91034.13
8.22995	110183.3
8.23282	104814.8
8.23567	102429.6
8.23853	103282.1
8.2414	99249.75
8.24427	113372.4
8.24713	102800.3
8.25	104502.5
8.25285	104269.8
8.25572	103088.6
8.25858	105267.8
8.26145	110478.3
8.26432	101112.2
8.26718	103266.3
8.27003	106982.4
8.2729	106469.7
8.27577	102421.7
8.27863	104276.9
8.2815	106653.5
8.28437	114010.1
8.28722	98152.83
8.29008	109537.9
8.29295	105296.7
8.29582	100400.5
8.29868	98424.8
8.30155	98946.63
8.3044	92875.16
8.30727	100202.3
8.31013	103132.6
8.313	97584.63
8.31587	101478.4
8.31872	102550.1
8.32158	91114.1
8.32445	102465.8
8.32732	100327.7
8.33018	99355.48
8.33305	97487.59
8.3359	101139.9
8.33877	99532.11
8.34163	96991
8.3445	92625.29
8.34737	96106.87
8.35023	90480.8
8.35308	93574.26
8.35595	94215.72
8.35882	92394.27
8.36168	96523.99
8.36455	95520.97
8.36742	97145.59
8.37027	87698.4
8.37313	83981.13
8.376	89088.45
8.37887	87693.74
8.38173	90324.62
8.3846	92693.59
8.38745	91002.48
8.39032	90614.67
8.39318	85148.76
8.39605	86653.2
8.39892	82466.08
8.40178	83157.21
8.40463	92312.81
8.4075	87049.37
8.41037	93525.34
8.41323	87417.02
8.4161	92358.16
8.41897	93278.5
8.42182	88119.4
8.42468	94416.59
8.42755	85215.85
8.43042	83379.45
8.43328	97841.12
8.43615	94108.3
8.439	88011.33
8.44187	88346.02
8.44473	88208.54
8.4476	85188.36
8.45047	91777.52
8.45332	81978.74
8.45618	86653.77
8.45905	82647.96
8.46192	80055.79
8.46478	82058.49
8.46765	84487.59
8.4705	89802.3
8.47337	83722.59
8.47623	81611.25
8.4791	85410.85
8.48197	77687.95
8.48483	79967.41
8.48768	76300.94
8.49055	82501.62
8.49342	82154.2
8.49628	77897.41
8.49915	77951.6
8.50202	77832.23
8.50487	80204.02
8.50773	70301.85
8.5106	77121.05
8.51347	80314.91
8.51633	73126.92
8.5192	81814.6
8.52205	81569.8
8.52492	85694.45
8.52778	83123.15
8.53065	84806.18
8.53352	79846.16
8.53638	80563.96
8.53923	80738.93
8.5421	83651.01
8.54497	86909.48
8.54783	77831.41
8.5507	72883.77
8.55357	82213.02
8.55642	77027.3
8.55928	86591.84
8.56215	81289.56
8.56502	83084.08
8.56788	83688.08
8.57075	73021.5
8.5736	75397.79
8.57647	69840.86
8.57933	74672.3
8.5822	73502.42
8.58507	71710.63
8.58793	74742.53
8.59078	72161.21
8.59365	74871.61
8.59652	73159.56
8.59938	68975.87
8.60225	71136.45
8.6051	74227.92
8.60797	79207.75
8.61083	73418.77
8.6137	66518.6
8.61657	76225.12
8.61943	81170.38
8.62228	70182.64
8.62515	69091.41
8.62802	71185.41
8.63088	73050.59
8.63375	67993.53
8.63662	71297.31
8.63947	73320.36
8.64233	72894.3
8.6452	67170.45
8.64807	70020.84
8.65093	70460.53
8.6538	72193.68
8.65665	75908.13
8.65952	66661.55
8.66238	68565.24
8.66525	73181.88
8.66812	72635.01
8.67098	70281.26
8.67383	70731.91
8.6767	74834.61
8.67957	71692.92
8.68243	69036.84
8.6853	72156.52
8.68817	74112.67
8.69102	76496.69
8.69388	71242.55
8.69675	67065.63
8.69962	72349.55
8.70248	68812.79
8.70535	69999.47
8.7082	74674.5
8.71107	73704.82
8.71393	75610.77
8.7168	75279.66
8.71967	72669.32
8.72253	68427.52
8.72538	79321.04
8.72825	68427.48
8.73112	75144.69
8.73398	78972.27
8.73685	74068.16
8.7397	74072.77
8.74257	75850.5
8.74543	72419.41
8.7483	69623.11
8.75117	75921.81
8.75403	83803.41
8.75688	72282.82
8.75975	76880.2
8.76262	73372.02
8.76548	77205.09
8.76835	83051.02
8.77122	74240.66
8.77407	78664.46
8.77693	71078.97
8.7798	80333.22
8.78267	75678.91
8.78553	74978.31
8.7884	75669.96
8.79125	83837.65
8.79412	78374.03
8.79698	74336.84
8.79985	78423.92
8.80272	75869.54
8.80558	69560.14
8.80843	73429.35
8.8113	70410.42
8.81417	73223.93
8.81703	72521.7
8.8199	72248.98
8.82277	71618.41
8.82562	76336.28
8.82848	76234.9
8.83135	69510.84
8.83422	71651.87
8.83708	74314.8
8.83995	72570.99
8.8428	74389.06
8.84567	68806.09
8.84853	68487.55
8.8514	68561.81
8.85427	65174.1
8.85713	68057.1
8.85998	66558.7
8.86285	69786.02
8.86572	72240.71
8.86858	75621.35
8.87145	76439.17
8.8743	70058.44
8.87717	72529.41
8.88003	67866.63
8.8829	69310.65
8.88577	70791.94
8.88863	73945.7
8.89148	68006.66
8.89435	70507.05
8.89722	68663.18
8.90008	66780.66
8.90295	66801.81
8.90582	72463.77
8.90867	68810.08
8.91153	65462.53
8.9144	68136.13
8.91727	72844.55
8.92013	72278.21
8.923	64198.04
8.92585	71189.87
8.92872	69388.28
8.93158	67798.56
8.93445	62263.42
8.93732	65799.26
8.94018	70544.38
8.94303	75769.04
8.9459	71080.88
8.94877	64499.81
8.95163	70962.93
8.9545	77371.84
8.95737	81801.84
8.96022	83940.69
8.96308	102437.3
8.96595	117422.3
8.96882	128847.4
8.97168	137745.6
8.97455	129211.3
8.9774	123154.9
8.98027	110284.9
8.98313	106641.4
8.986	102505.9
8.98887	95589.73
8.99173	91049.93
8.99458	90912.92
8.99745	87204.33
9.00032	84682.23
9.00318	84751.36
9.00605	85095.38
9.0089	82280.95
9.01177	80660.95
9.01463	80572.43
9.0175	84803
9.02037	83437.09
9.02323	85292.89
9.02608	82182.47
9.02895	77477.21
9.03182	83111.78
9.03468	88372.38
9.03755	82329.71
9.04042	82602.81
9.04327	85286.65
9.04613	86329.41
9.049	87715.49
9.05187	83965.76
9.05473	91659.26
9.0576	80570.16
9.06045	76145.41
9.06332	81797.25
9.06618	84786.05
9.06905	85140.37
9.07192	78675.21
9.07478	85204.33
9.07763	87447.45
9.0805	81415.27
9.08337	75997.65
9.08623	86882.85
9.0891	80882.69
9.09197	80412.25
9.09482	84171.14
9.09768	85002.79
9.10055	80726.79
9.10342	86459.29
9.10628	77417.74
9.10915	82816.84
9.112	78824.05
9.11487	78392.75
9.11773	79503.41
9.1206	85510.63
9.12347	94083.28
9.12633	82135.95
9.12918	83060.41
9.13205	84397.18
9.13492	80478.84
9.13778	83409.98
9.14065	78309.73
9.1435	76260.66
9.14637	74914.51
9.14923	77874.03
9.1521	85799.16
9.15497	79750.44
9.15783	74236.05
9.16068	72947.65
9.16355	79204.78
9.16642	75043.66
9.16928	80314.15
9.17215	75405.27
9.17502	78566.42
9.17787	74847.87
9.18073	77473.59
9.1836	79257.89
9.18647	77079.37
9.18933	73435.13
9.1922	75898.4
9.19505	78212.52
9.19792	76057.82
9.20078	83176.66
9.20365	82876.14
9.20652	81353.34
9.20938	76467.15
9.21223	82138.61
9.2151	74850.17
9.21797	72439.06
9.22083	73126.15
9.2237	70195.71
9.22657	70735.63
9.22942	65642.3
9.23228	71902.5
9.23515	70775
9.23802	68780.49
9.24088	69775.46
9.24375	72221.55
9.2466	79017.46
9.24947	84834.42
9.25233	88618.2
9.2552	94096.36
9.25807	98342.2
9.26093	89097.67
9.26378	91880.36
9.26665	93459.11
9.26952	96428.03
9.27238	97609.45
9.27525	106075.3
9.27812	109093.8
9.28097	110369.7
9.28383	97062.72
9.2867	87417.44
9.28957	92845.71
9.29243	94243.28
9.29528	103081.8
9.29815	94613.55
9.30102	96178.29
9.30388	92627.65
9.30675	85872.53
9.30962	92500.44
9.31247	98630.53
9.31533	96755.42
9.3182	88819.89
9.32107	101735.1
9.32393	100579.9
9.3268	104498.5
9.32965	98244.13
9.33252	103209.5
9.33538	107232.9
9.33825	103977.7
9.34112	102165.6
9.34398	103203.7
9.34683	99431.2
9.3497	102477.1
9.35257	107338.4
9.35543	105916.1
9.3583	106837.3
9.36117	105762.9
9.36402	103943.5
9.36688	102807.4
9.36975	103494.7
9.37262	104568.8
9.37548	103930
9.37835	98555.41
9.3812	101452.7
9.38407	100133.8
9.38693	96112.16
9.3898	99749.93
9.39267	97558.41
9.39553	93545.45
9.39838	100847.9
9.40125	102887.4
9.40412	101386.7
9.40698	94034.24
9.40985	98083.98
9.41272	96750.5
9.41557	97891.38
9.41843	88878.97
9.4213	93854.91
9.42417	94680.81
9.42703	94018.65
9.42988	89801.3
9.43275	83547.45
9.43562	88163.71
9.43848	86875.36
9.44135	85809.42
9.44422	82829.63
9.44707	85177.48
9.44993	85544.29
9.4528	86326.92
9.45567	84317.17
9.45853	85520.26
9.4614	83249.97
9.46425	82950.06
9.46712	78361
9.46998	81016.31
9.47285	79542.19
9.47572	84439.89
9.47858	80742.17
9.48143	83852.53
9.4843	87430.33
9.48717	88475.28
9.49003	84014.34
9.4929	96319.25
9.49577	85738.95
9.49862	86243.95
9.50148	82471.98
9.50435	79875.2
9.50722	82569.05
9.51008	80304.73
9.51295	75736.38
9.5158	74737.28
9.51867	77540.43
9.52153	74111.51
9.5244	78495.43
9.52727	78919.1
9.53013	74837.19
9.53298	75899.77
9.53585	79163.78
9.53872	72628.06
9.54158	77019.32
9.54445	75196.79
9.54732	73683.86
9.55017	73907.21
9.55303	78319.83
9.5559	77876.25
9.55877	75531.29
9.56163	76326.89
9.56448	72297.39
9.56735	75079.53
9.57022	72167.55
9.57308	74224.02
9.57595	71734.63
9.57882	76070.69
9.58167	70277.88
9.58453	70408.23
9.5874	66067.73
9.59027	73290.45
9.59313	71877.59
9.596	70829.48
9.59885	67505.68
9.60172	71325.04
9.60458	69980.08
9.60745	67904.65
9.61032	65464.58
9.61318	69073.19
9.61603	65961.84
9.6189	69766.07
9.62177	65473.91
9.62463	74076.66
9.6275	72001.34
9.63037	75230.66
9.63322	67371.79
9.63608	69630.01
9.63895	72838.68
9.64182	67026.56
9.64468	66223.37
9.64755	68364.99
9.6504	70132.77
9.65327	66434.23
9.65613	67596.47
9.659	72221.18
9.66187	75523
9.66473	63494.98
9.66758	64172.54
9.67045	60550.3
9.67332	69302.63
9.67618	70493.23
9.67905	72289.11
9.68192	68715.73
9.68477	74436.79
9.68763	66732.02
9.6905	71535.4
9.69337	69652.31
9.69623	64761.17
9.69908	67689.02
9.70195	69668.24
9.70482	74674.75
9.70768	69389.15
9.71055	67669.7
9.71342	70359.63
9.71627	66724.21
9.71913	69312.15
9.722	72847.36
9.72487	69361.98
9.72773	75588.04
9.7306	75574.01
9.73345	75616.91
9.73632	73745.76
9.73918	80975.86
9.74205	72268.57
9.74492	65158.83
9.74778	62942.09
9.75063	66403.83
9.7535	69907.57
9.75637	68362.38
9.75923	71067.25
9.7621	64776.73
9.76497	73118.12
9.76782	71545.46
9.77068	71457.41
9.77355	71637.13
9.77642	70090.43
9.77928	71159.02
9.78215	66801.88
9.785	69212.7
9.78787	67808.09
9.79073	67822.32
9.7936	80064.41
9.79647	67374.78
9.79933	64394.22
9.80218	73042.76
9.80505	68712.95
9.80792	65760.26
9.81078	70777.94
9.81365	69201.2
9.81652	68663.69
9.81937	67654.49
9.82223	69034.18
9.8251	63474.07
9.82797	61949.73
9.83083	67319.45
9.83368	69321.53
9.83655	72148.91
9.83942	69757.38
9.84228	65436.69
9.84515	70295.88
9.84802	66030.41
9.85087	65944.08
9.85373	69640.09
9.8566	71971.52
9.85947	79627.45
9.86233	72844.48
9.8652	76952.73
9.86805	74269.12
9.87092	72324.13
9.87378	71416.17
9.87665	70702.07
9.87952	70575.48
9.88238	72246.1
9.88523	76763.77
9.8881	68699.23
9.89097	78130.83
9.89383	70842.18
9.8967	68547.34
9.89957	69620.73
9.90242	73500.94
9.90528	75344.52
9.90815	73530.5
9.91102	74339.87
9.91388	75436.36
9.91675	74587.26
9.9196	85443.55
9.92247	81123.04
9.92533	79238.02
9.9282	82674.5
9.93107	73587.09
9.93393	77647.92
9.93678	70154.93
9.93965	74284.16
9.94252	68348.05
9.94538	70393.38
9.94825	74980.85
9.95112	69397.36
9.95397	70011.13
9.95683	75729.78
9.9597	74555.27
9.96257	65260.44
9.96543	75611.85
9.96828	70541.8
9.97115	68698.2
9.97402	67688.76
9.97688	73381.9
9.97975	71543.02
9.98262	71258.93
9.98547	73627.21
9.98833	71029.72
9.9912	74218.5
9.99407	72436.54
9.99693	72041.27
9.9998	66760.77
10.00265	76510.32
10.00552	68091.11
10.00838	65458.37
10.01125	71822.21
10.01412	72093.06
10.01698	74029.72
10.01983	73604.48
10.0227	71661.31
10.02557	70077.22
10.02843	70508.24
10.0313	72425.31
10.03417	73930.77
10.03702	78589.25
10.03988	75030.28
10.04275	76608.11
10.04562	71939.54
10.04848	76673.83
10.05135	78641.85
10.0542	81681.01
10.05707	81888.09
10.05993	83397.12
10.0628	85479.88
10.06567	82788.88
10.06853	90523.57
10.07138	90952.99
10.07425	83422.39
10.07712	84539.81
10.07998	96758.75
10.08285	90180.05
10.08572	93280.09
10.08857	91931.8
10.09143	86687.4
10.0943	83025.88
10.09717	89281.61
10.10003	89530.83
10.1029	85124.11
10.10575	89786.05
10.10862	98761.88
10.11148	92728.76
10.11435	90643.38
10.11722	93121.78
10.12007	90752.13
10.12293	87896.14
10.1258	98605.95
10.12867	99833.09
10.13153	88287.67
10.1344	93709.36
10.13725	88768.23
10.14012	92718.62
10.14298	87388.4
10.14585	85594.38
10.14872	87828.91
10.15158	93815.59
10.15443	89389.05
10.1573	89225.25
10.16017	93157.78
10.16303	95710.89
10.1659	97819.91
10.16877	89457.2
10.17162	93678.9
10.17448	84706.66
10.17735	91891.91
10.18022	87721.78
10.18308	91120.16
10.18595	88574.04
10.1888	95026.63
10.19167	86424.44
10.19453	89950.27
10.1974	93200.32
10.20027	88176.21
10.20313	90243.47
10.20598	105233.9
10.20885	92207.56
10.21172	86635.4
10.21458	93468.05
10.21745	98082.44
10.22032	87602.88
10.22317	84581.6
10.22603	86213.2
10.2289	86546.64
10.23177	89673.48
10.23463	87618.95
10.2375	94187.62
10.24035	91697.5
10.24322	100704
10.24608	118754.8
10.24895	178496.7
10.25182	323929.6
10.25467	617914.4
10.25753	1051613
10.2604	1528949
10.26327	1861603
10.26613	1832361
10.269	1525898
10.27185	1114769
10.27472	725257.8
10.27758	445805.5
10.28045	286707.3
10.28332	224465.2
10.28618	186833.6
10.28903	165383.2
10.2919	154440.1
10.29477	140437.5
10.29763	137974.8
10.3005	128858.8
10.30337	131690.6
10.30622	125657.8
10.30908	123678.5
10.31195	117966.2
10.31482	116476.7
10.31768	117191.9
10.32055	114207.3
10.3234	119787.8
10.32627	121828
10.32913	122898.8
10.332	129693.4
10.33487	127454.1
10.33773	132211.2
10.34058	136906.1
10.34345	144983.5
10.34632	134779.4
10.34918	128727.6
10.35205	135709.4
10.35492	120314.5
10.35777	128708
10.36063	120354.1
10.3635	118661.5
10.36637	123081.9
10.36923	121594.6
10.3721	128268.1
10.37495	117171.2
10.37782	119785.2
10.38068	116135.7
10.38355	119385.4
10.38642	120403.5
10.38927	106866.3
10.39213	105985.4
10.395	114286.9
10.39787	108052.1
10.40073	119702.8
10.4036	103980.3
10.40645	109677
10.40932	109907
10.41218	103736
10.41505	101383.2
10.41792	108383.3
10.42078	104305.2
10.42363	99269.16
10.4265	102781.4
10.42937	109286.6
10.43223	99443.16
10.4351	106099.3
10.43797	103742.4
10.44082	104603.6
10.44368	105797.2
10.44655	95258.38
10.44942	97183
10.45228	101512.9
10.45515	100526.8
10.458	103289.5
10.46087	105223.8
10.46373	102046.9
10.4666	102401.8
10.46947	99377.72
10.47233	97915.77
10.47518	95088.02
10.47805	97931.56
10.48092	97588.41
10.48378	95342.97
10.48665	96378.88
10.48952	98711.1
10.49237	95061.09
10.49523	98549.17
10.4981	90652.45
10.50097	89703.34
10.50383	92747.12
10.5067	86891.61
10.50955	100274.7
10.51242	94095.81
10.51528	98109.66
10.51815	96697.86
10.52102	88940.45
10.52387	91843.48
10.52673	94856.05
10.5296	88881.7
10.53247	99059.63
10.53533	96297.08
10.5382	97908.98
10.54105	100291
10.54392	102099.3
10.54678	106243.1
10.54965	107792.7
10.55252	103536.7
10.55538	106582
10.55823	100348.6
10.5611	101109.3
10.56397	108790.4
10.56683	111212.1
10.5697	100096.7
10.57257	102847.1
10.57542	95898.13
10.57828	95262.55
10.58115	98508.44
10.58402	100104.6
10.58688	101256.3
10.58975	97460.35
10.5926	94777.46
10.59547	97469.52
10.59833	94082.87
10.6012	89614.28
10.60407	100358.5
10.60693	87735.17
10.60978	92252.74
10.61265	89893.05
10.61552	106950.7
10.61838	99410.73
10.62125	98506.15
10.62412	100244.2
10.62697	95284.74
10.62983	93661.03
10.6327	90564.68
10.63557	95841.25
10.63843	93815.55
10.6413	94451.43
10.64415	93159.22
10.64702	87402.38
10.64988	92385.34
10.65275	95664.9
10.65562	94143.76
10.65847	96936.16
10.66133	91631.48
10.6642	96088.79
10.66707	88497.17
10.66993	88689.13
10.6728	89035.27
10.67565	89989.55
10.67852	90632.13
10.68138	90823.91
10.68425	94313.92
10.68712	100649.8
10.68998	100580.4
10.69283	95807.08
10.6957	103721.6
10.69857	100456.5
10.70143	96457.17
10.7043	95954.66
10.70717	96733.52
10.71002	94099.14
10.71288	92417.45
10.71575	93476.48
10.71862	95466.55
10.72148	85510.99
10.72435	90425.45
10.7272	91290.77
10.73007	91428.99
10.73293	92532.64
10.7358	97497.6
10.73867	95212.21
10.74153	103579.8
10.74438	100571
10.74725	102971
10.75012	115716.9
10.75298	100784.7
10.75585	106401.6
10.75872	103308.4
10.76157	92253.45
10.76443	93499.89
10.7673	97834.16
10.77017	93017.77
10.77303	95672.5
10.7759	102379.5
10.77875	105233.4
10.78162	110215.5
10.78448	113968.5
10.78735	118476.6
10.79022	113801
10.79308	112029.1
10.79593	109142.1
10.7988	103170
10.80167	103323.9
10.80453	118550.4
10.8074	138161.1
10.81025	150513.3
10.81312	186036.6
10.81598	218285.9
10.81885	241602.8
10.82172	247864.2
10.82458	266568.5
10.82743	235293.6
10.8303	225356.4
10.83317	218880.5
10.83603	216364.1
10.8389	209379.2
10.84177	210868.2
10.84462	211950.8
10.84748	204489.4
10.85035	203300.5
10.85322	199290.7
10.85608	192968.2
10.85895	184484.9
10.8618	190544.8
10.86467	188445.1
10.86753	202943.6
10.8704	201647
10.87327	217586.4
10.87613	237125.2
10.87898	254074.1
10.88185	250702.8
10.88472	236776.8
10.88758	223063
10.89045	207158.8
10.89332	199913.7
10.89617	198323.9
10.89903	188281.5
10.9019	195460.9
10.90477	196112.6
10.90763	205815.2
10.9105	195408.5
10.91335	194069.7
10.91622	203458.2
10.91908	210951.3
10.92195	207901
10.92482	213405.5
10.92768	206696.1
10.93053	213630.8
10.9334	214765.5
10.93627	218426.3
10.93913	218583.7
10.942	230456.1
10.94487	249982.9
10.94772	272901.9
10.95058	269142.3
10.95345	265457.4
10.95632	271175.8
10.95918	253343.1
10.96205	253281.4
10.9649	237136.3
10.96777	242995.7
10.97063	247594.4
10.9735	241594.1
10.97637	238962.6
10.97923	257263.2
10.98208	275154.8
10.98495	272835.6
10.98782	268567.4
10.99068	266010.7
10.99355	261506.2
10.99642	257192.5
10.99927	257993.8
11.00213	269891.1
11.005	270523.9
11.00787	278097.5
11.01073	278677.7
11.0136	289048.2
11.01645	308827.4
11.01932	319283.9
11.02218	338469.9
11.02505	313107.4
11.02792	312164.2
11.03078	301706.4
11.03363	301671.8
11.0365	300089.2
11.03937	307050.8
11.04223	298229.6
11.0451	331286
11.04797	327786
11.05082	337956.4
11.05368	352335.7
11.05655	372014.5
11.05942	352677.9
11.06228	375041.3
11.06515	348241.3
11.06802	333614.1
11.07087	364206.8
11.07373	346540
11.0766	337543.3
11.07947	342843
11.08233	340502.4
11.0852	347979
11.08805	369517.4
11.09092	428741.4
11.09378	676730.3
11.09665	1429330
11.09952	3243142
11.10238	6871007
11.17112	2940272
11.17398	1028188
11.17685	805656
11.17972	759730.1
11.18258	674047.4
11.18545	667228.8
11.1883	650578.1
11.19117	623781.9
11.19403	645313.9
11.1969	630514.5
11.19977	646689.9
11.20263	615077.6
11.2055	613221.5
11.20835	599850.4
11.21122	561278.1
11.21408	550054.1
11.21695	543237.6
11.21982	525496.1
11.22268	527397.4
11.22555	583936.2
11.2284	606052
11.23127	677054.4
11.23413	644399.9
11.237	593906.3
11.23987	553934.1
11.24273	478309.1
11.24558	436258.1
11.24845	433488.8
11.25132	400451.5
11.25418	379211.5
11.25705	375844.2
11.25992	352534.6
11.26278	342633.5
11.26563	346832.5
11.2685	334014.8
11.27137	330741.8
11.27423	315467.2
11.2771	295473.9
11.27997	310272.1
11.28282	297344.2
11.28568	306627.8
11.28855	304522.3
11.29142	311991.9
11.29428	311266.8
11.29715	304239.9
11.30002	286745.3
11.30287	288332
11.30573	272976.3
11.3086	270292.4
11.31147	255808
11.31433	248695.2
11.3172	234896
11.32005	225196.7
11.32292	236045.6
11.32578	231444.3
11.32865	247428.1
11.33152	246710.5
11.33438	225537.1
11.33725	223538.6
11.3401	219480
11.34297	225077.2
11.34583	230248.7
11.3487	218775
11.35157	212729.8
11.35443	208992.6
11.35728	204107.3
11.36015	215064.9
11.36302	203295.2
11.36588	212648.5
11.36875	236473.6
11.37162	234346.2
11.37448	242033.8
11.37733	249398.4
11.3802	252379.2
11.38307	241338.8
11.38593	242009
11.3888	238206.3
11.39167	237177.1
11.39452	231681.7
11.39738	226342.9
11.40025	206850
11.40312	212481.8
11.40598	199970.5
11.40885	196866
11.41172	191626.1
11.41457	193959.1
11.41743	171309
11.4203	166411.6
11.42317	157538.6
11.42603	154832
11.4289	159936.2
11.43175	166549.2
11.43462	173972
11.43748	175861.6
11.44035	169333.7
11.44322	185682.4
11.44608	169321
11.44895	176378.1
11.4518	187102.4
11.45467	166322.5
11.45753	177659.1
11.4604	178718.6
11.46327	171478.8
11.46613	156943.2
11.46898	159382
11.47185	173880
11.47472	183420.5
11.47758	184160.1
11.48045	183132.2
11.48332	195843.6
11.48618	194287.2
11.48903	199051.2
11.4919	201770.1
11.49477	192324.6
11.49763	205004.8
11.5005	197982.6
11.50337	199337.8
11.50622	189726.4
11.50908	191981.5
11.51195	187380
11.51482	210874.2
11.51768	211179.3
11.52055	239296
11.5234	233278.6
11.52627	237373.8
11.52913	229245.8
11.532	232725.1
11.53487	225748
11.53773	225469.6
11.5406	206198.2
11.54345	205526.5
11.54632	203264.6
11.54918	191379.5
11.55205	188895
11.55492	174718.6
11.55778	172454
11.56063	167873.1
11.5635	163525.6
11.56637	166795.5
11.56923	171863.3
11.5721	178261.3
11.57497	179594.2
11.57783	184324
11.58068	190292.8
11.58355	177057
11.58642	181050.8
11.58928	169616.2
11.59215	168032.1
11.59502	164592.6
11.59787	160011.9
11.60073	156343.3
11.6036	159788.8
11.60647	159977.9
11.60933	162748.3
11.6122	167334.5
11.61507	171200.1
11.61792	161524.3
11.62078	179298.5
11.62365	185469.1
11.62652	207198.8
11.62938	194171
11.63225	196028.2
11.6351	174316.9
11.63797	167902.2
11.64083	172619.7
11.6437	169663.6
11.64657	175430.2
11.64943	171445.2
11.6523	166389.9
11.65515	164855.6
11.65802	164249.2
11.66088	158165.6
11.66375	155047.2
11.66662	156946.2
11.66948	153913.2
11.67233	154623.3
11.6752	155203.8
11.67807	151202.9
11.68093	150132.1
11.6838	159291.1
11.68667	159394.3
11.68952	163363
11.69238	166802.1
11.69525	168491.8
11.69812	169700.2
11.70098	178585.4
11.70385	173507
11.70672	177144.1
11.70957	183882
11.71243	171462.9
11.7153	177936.9
11.71817	166410.9
11.72103	169208.3
11.7239	161858.4
11.72675	169767.7
11.72962	172657.8
11.73248	186335.1
11.73535	204862.3
11.73822	207390.7
11.74108	197643.5
11.74393	198412.9
11.7468	211256.1
11.74967	222614.6
11.75253	228074.5
11.7554	262726.7
11.75827	283707.4
11.76112	272366.3
11.76398	271567.1
11.76685	254744.5
11.76972	231534.1
11.77258	221331
11.77545	202979
11.7783	178365.1
11.78117	177266.7
11.78403	164831.3
11.7869	165677.8
11.78977	168312.2
11.79263	155839.6
11.7955	158429.7
11.79835	157927
11.80122	147909
11.80408	138262.8
11.80695	146290
11.80982	137427
11.81268	133372.8
11.81553	143524.1
11.8184	140922.5
11.82127	155998.4
11.82413	150077.7
11.827	150681.9
11.82987	164970.5
11.83273	174259.6
11.83558	173435.1
11.83845	178272.2
11.84132	174861.5
11.84418	182256.3
11.84705	191663.3
11.84992	226387.6
11.85277	260765.6
11.85563	369331.1
11.8585	496873.9
11.86137	638517.8
11.86423	684631.4
11.8671	652684.9
11.86997	546026.4
11.87282	385380.8
11.87568	283030.5
11.87855	233838.7
11.88142	192232.3
11.88428	172149.8
11.88715	169146
11.89	154394.1
11.89287	152459.8
11.89573	142841.3
11.8986	142898.4
11.90147	128520.5
11.90433	124241.3
11.9072	123651.4
11.91005	124938.1
11.91292	126957.9
11.91578	125595
11.91865	120859.6
11.92152	118129.8
11.92438	118570.1
11.92723	121870.8
11.9301	121899.1
11.93297	121528.1
11.93583	117210.1
11.9387	117837.1
11.94157	115012.4
11.94442	118825.1
11.94728	116114.4
11.95015	114817
11.95302	111593.4
11.95588	115763
11.95875	106858.6
11.96162	116460.2
11.96447	123155.5
11.96733	132837.4
11.9702	138540.1
11.97307	143838.2
11.97593	140453.3
11.9788	154451.1
11.98165	147304.9
11.98452	142869.3
11.98738	147783.2
11.99025	149427.3
11.99312	152216.5
11.99598	143351.6
11.99885	143312.3
12.0017	139493.2
12.00457	131696.4
12.00743	134463.1
12.0103	132386.4
12.01317	131618.9
12.01603	135230.4
12.01888	132388.5
12.02175	121612.5
12.02462	126002
12.02748	132449.2
12.03035	129709.6
12.03322	122264.9
12.03608	124277.6
12.03893	120102.7
12.0418	115295.7
12.04467	115888.3
12.04753	117410.7
12.0504	121267.6
12.05327	117581
12.05612	119311.7
12.05898	121095.8
12.06185	115720.8
12.06472	113248.3
12.06758	109994.5
12.07045	117052
12.07332	113104.9
12.07617	107249.2
12.07903	104602.2
12.0819	107391.6
12.08477	105533.4
12.08763	106463.6
12.0905	108306
12.09335	109184.6
12.09622	108510.6
12.09908	106511.6
12.10195	106427.1
12.10482	109536.3
12.10768	112518.2
12.11055	121378.9
12.1134	115930.6
12.11627	120604
12.11913	115924.2
12.122	111883.8
12.12487	120124.8
12.12773	121640.2
12.13058	116071.7
12.13345	112949.1
12.13632	109380.6
12.13918	110556.8
12.14205	106588
12.14492	105831.8
12.14778	107420.6
12.15063	102553.3
12.1535	105566.4
12.15637	105724.8
12.15923	106834
12.1621	98864.88
12.16497	104536
12.16782	103344.6
12.17068	99411.19
12.17355	106939.5
12.17642	108027
12.17928	108434.6
12.18215	103050.7
12.18502	107780.1
12.18787	103716.5
12.19073	104839.4
12.1936	104052
12.19647	107338.8
12.19933	105619.8
12.2022	102153
12.20505	112197
12.20792	114473.1
12.21078	113969.2
12.21365	106719
12.21652	111109.8
12.21938	111814
12.22225	111233.8
12.2251	107335.9
12.22797	107878.9
12.23083	107791.2
12.2337	108768.1
12.23657	104430.3
12.23943	108327.9
12.24228	101738.4
12.24515	109162.6
12.24802	101985.3
12.25088	104561.1
12.25375	103366.7
12.25662	101632.7
12.25947	96630.41
12.26233	98017.33
12.2652	95455.25
12.26807	103322.6
12.27093	98160.17
12.2738	94763.87
12.27667	100221.8
12.27952	97088.73
12.28238	97988.77
12.28525	93668.55
12.28812	96075.12
12.29098	86961.16
12.29385	91026.96
12.2967	93281.07
12.29957	88871.16
12.30243	98538.84
12.3053	94975.77
12.30817	93659.95
12.31103	96407.6
12.31388	97696
12.31675	102299.9
12.31962	99372.1
12.32248	99469.53
12.32535	99950.13
12.32822	91958.59
12.33108	93216.66
12.33393	104690.2
12.3368	89012.6
12.33967	100366.2
12.34253	102447.1
12.3454	96859.64
12.34827	101361.4
12.35112	105465.9
12.35398	112557.3
12.35685	117143.5
12.35972	129097.6
12.36258	132710
12.36545	128354.5
12.3683	133576.7
12.37117	138182.8
12.37403	137398.7
12.3769	129182.9
12.37977	134939.4
12.38263	146024.4
12.3855	144017.5
12.38835	138235.4
12.39122	133143.8
12.39408	134878.5
12.39695	135759.7
12.39982	138837.8
12.40268	124517.7
12.40553	123027.9
12.4084	120074.9
12.41127	116623.6
12.41413	132824.6
12.417	163910.9
12.41987	250998.3
12.42273	425942.8
12.42558	832600.5
12.42845	1412718
12.43132	2187912
12.43418	2916086
12.43705	3545278
12.43992	4021052
12.44277	4226163
12.44563	4137459
12.4485	3874443
12.45137	3637745
12.45423	3245272
12.4571	2885712
12.45997	2574378
12.46282	2275089
12.46568	1958201
12.46855	1716651
12.47142	1489440
12.47428	1293188
12.47715	1129831
12.48	995715.9
12.48287	861841.6
12.48573	770891.1
12.4886	695670.6
12.49147	612139.5
12.49433	556131.6
12.4972	499516.6
12.50005	443958.3
12.50292	410028.4
12.50578	366719.3
12.50865	347210.3
12.51152	317357.2
12.51438	311823.3
12.51723	279736.4
12.5201	259447.1
12.52297	247823
12.52583	245261.8
12.5287	224324.6
12.53157	220837.4
12.53443	220787.1
12.53728	202613.7
12.54015	208370.3
12.54302	239437.7
12.54588	261195.5
12.54875	237427.3
12.55162	229221.4
12.55447	211385.6
12.55733	190989
12.5602	174898.4
12.56307	156918.6
12.56593	157957.2
12.5688	157073.3
12.57167	152798.8
12.57452	149131.9
12.57738	148192
12.58025	147669.9
12.58312	149748.9
12.58598	146623.5
12.58885	154222.1
12.5917	153698.3
12.59457	143769.8
12.59743	148331.5
12.6003	137557
12.60317	135664.9
12.60603	137341.9
12.6089	127248.6
12.61175	138223.1
12.61462	143683.3
12.61748	134237.3
12.62035	141077.5
12.62322	144535.8
12.62608	134394.2
12.62893	130979.6
12.6318	128684.6
12.63467	116237.3
12.63753	130117.4
12.6404	132915.4
12.64327	126584.7
12.64613	133209.7
12.64898	130898.5
12.65185	126925.1
12.65472	115105.2
12.65758	122481.2
12.66045	131050.5
12.66332	119979.8
12.66617	118951.9
12.66903	112278.3
12.6719	122301.9
12.67477	114232.8
12.67763	107518.4
12.6805	110325.3
12.68337	105707.7
12.68622	111648.3
12.68908	114941.8
12.69195	123838
12.69482	137217.2
12.69768	179396.6
12.70055	265897.8
12.7034	443789.1
12.70627	651431.6
12.70913	936541.9
12.712	1114659
12.71487	1191237
12.71773	1113643
12.7206	941450.4
12.72345	736935.5
12.72632	546343.8
12.72918	401223.6
12.73205	305887.1
12.73492	249888
12.73778	213266.5
12.74063	190563.3
12.7435	178398.4
12.74637	163725.3
12.74923	154800.3
12.7521	152382.7
12.75497	139037.3
12.75783	135741.8
12.76068	139019.1
12.76355	126817.2
12.76642	127614.5
12.76928	125410
12.77215	124184
12.77502	121634
12.77787	122185.6
12.78073	115636.6
12.7836	113216.4
12.78647	118909.7
12.78933	116402.8
12.7922	119511.4
12.79507	117582.6
12.79792	120732.3
12.80078	117625.2
12.80365	119279.9
12.80652	113888
12.80938	114048.2
12.81225	120472.7
12.8151	111508.3
12.81797	110716.4
12.82083	110063
12.8237	114063.8
12.82657	108244.9
12.82943	112666
12.8323	111702.7
12.83515	113475.4
12.83802	113499.3
12.84088	124695
12.84375	136230.6
12.84662	162208.4
12.84948	187277.7
12.85233	212975.4
12.8552	207545.2
12.85807	195178.9
12.86093	189372
12.8638	174437.9
12.86667	143452.8
12.86953	130394.1
12.87238	125619.1
12.87525	121858.2
12.87812	122547.6
12.88098	112197
12.88385	116429.9
12.88672	109777.2
12.88957	110524
12.89243	106478.8
12.8953	104953
12.89817	116950.2
12.90103	105986.5
12.9039	109923.3
12.90677	109636.1
12.90962	114292.6
12.91248	110662.5
12.91535	111358.3
12.91822	113910.7
12.92108	109468.4
12.92395	106186.6
12.9268	107332.6
12.92967	104562.6
12.93253	111987.1
12.9354	111875.2
12.93827	112834
12.94113	117682.3
12.944	119864.5
12.94685	114311
12.94972	120527.2
12.95258	123864.1
12.95545	122322.6
12.95832	137834.9
12.96118	143261.5
12.96403	152823.3
12.9669	170932.6
12.96977	176585.3
12.97263	184470.5
12.9755	181487
12.97837	195593.6
12.98123	184994.7
12.98408	166099
12.98695	171606.5
12.98982	159348.6
12.99268	157483.4
12.99555	146339.9
12.99842	138996.4
13.00127	137551.3
13.00413	131843.2
13.007	124641
13.00987	134739.3
13.01273	119242.3
13.0156	121292.6
13.01847	126010.5
13.02132	126584.4
13.02418	120550
13.02705	108865.4
13.02992	109826.8
13.03278	116239.2
13.03565	109780.8
13.0385	113518.8
13.04137	116802.3
13.04423	111012.9
13.0471	114628.3
13.04997	118635.6
13.05283	115009
13.05568	114874.7
13.05855	112204.5
13.06142	114834.2
13.06428	104798.2
13.06715	112886.9
13.07002	105658.4
13.07288	109859.6
13.07573	102415.2
13.0786	102398.1
13.08147	111519
13.08433	111237
13.0872	112831.2
13.09007	112855.9
13.09292	110318.3
13.09578	113271
13.09865	119012.6
13.10152	113569.8
13.10438	118679.1
13.10725	118611.2
13.11012	114500
13.11297	119511.9
13.11583	116412.6
13.1187	124196.2
13.12157	123379.7
13.12443	119774.9
13.1273	119611.3
13.13015	117737.3
13.13302	125430.7
13.13588	134984.8
13.13875	128711.2
13.14162	133032.6
13.14448	127751.4
13.14735	122917.9
13.1502	115638.5
13.15307	110755
13.15593	104750.8
13.1588	108953.5
13.16167	111014.6
13.16453	117869.8
13.16738	118834.7
13.17025	140254
13.17312	181297.3
13.17598	238437.7
13.17885	329666.3
13.18172	441243.2
13.18458	531676.7
13.18743	605786.8
13.1903	661904.8
13.19317	649905.3
13.19603	603053.9
13.1989	555075
13.20177	469877.1
13.20462	401562.1
13.20748	313951.9
13.21035	271726.1
13.21322	233503.7
13.21608	196277.1
13.21895	175945.8
13.22182	172822.3
13.22467	155072.9
13.22753	147331.7
13.2304	138148.8
13.23327	137210.8
13.23613	138803.6
13.239	146635.5
13.24185	138312.1
13.24472	147433.1
13.24758	151903
13.25045	158923.5
13.25332	162669
13.25618	148399
13.25905	139035.6
13.2619	136986.5
13.26477	129571.5
13.26763	130008.9
13.2705	124733.8
13.27337	125759.8
13.27623	121536.7
13.27908	123997.1
13.28195	125015.4
13.28482	127549.6
13.28768	133934.9
13.29055	137403.2
13.29342	130679.4
13.29628	140333.6
13.29913	137920.6
13.302	145386.4
13.30487	151519.5
13.30773	159563.1
13.3106	156554.4
13.31347	163029.2
13.31632	169214.7
13.31918	158741.1
13.32205	162378.4
13.32492	156517.5
13.32778	156059.1
13.33065	143379.8
13.33352	133554
13.33637	138898.3
13.33923	125410.4
13.3421	132118.2
13.34497	131534.5
13.34783	130153.5
13.3507	128421.7
13.35355	143578.6
13.35642	165514.1
13.35928	205774.4
13.36215	257983.2
13.36502	287137.4
13.36788	311467.4
13.37075	301732.1
13.3736	240480.8
13.37647	200136.9
13.37933	150639.6
13.3822	141229.3
13.38507	125419.7
13.38793	121935.7
13.39078	117693.4
13.39365	116102.1
13.39652	114632
13.39938	121140
13.40225	120760.4
13.40512	119928.8
13.40798	116131.6
13.41083	117504.4
13.4137	108118.4
13.41657	108956.8
13.41943	118118.1
13.4223	115839.4
13.42517	114939.1
13.42802	118502.7
13.43088	117743.1
13.43375	117043.7
13.43662	122436.8
13.43948	129879.3
13.44235	136843.3
13.44522	149786.3
13.44807	153080.9
13.45093	175470.5
13.4538	198235.9
13.45667	210110.5
13.45953	215446.4
13.4624	205810.5
13.46525	199588.1
13.46812	189617.5
13.47098	173082.1
13.47385	160840.5
13.47672	160661.6
13.47958	151283.4
13.48245	151381.1
13.4853	150047
13.48817	141990.4
13.49103	136294.2
13.4939	136156.3
13.49677	132511.2
13.49963	127042.1
13.50248	128651.5
13.50535	129532.8
13.50822	126563.4
13.51108	131240.5
13.51395	123157.5
13.51682	133401.4
13.51968	126859.5
13.52253	134721.6
13.5254	130948.5
13.52827	135650
13.53113	128837.3
13.534	134157.6
13.53687	134547.5
13.53972	141187.1
13.54258	148889.1
13.54545	158573.5
13.54832	163431.5
13.55118	160096
13.55405	167655.7
13.55692	164072.9
13.55977	158543.5
13.56263	155881.6
13.5655	150254.3
13.56837	150072.6
13.57123	150782.9
13.5741	147601.1
13.57695	134920.2
13.57982	145813.7
13.58268	133496.1
13.58555	133074.2
13.58842	147629.5
13.59128	134691.7
13.59415	137643.3
13.597	130222.6
13.59987	129689.1
13.60273	134761.4
13.6056	124065.8
13.60847	124660.7
13.61133	131492.8
13.61418	127319.2
13.61705	129417.6
13.61992	128071.3
13.62278	131172.1
13.62565	125076
13.62852	129051.7
13.63138	122539.6
13.63423	125040.4
13.6371	135773.9
13.63997	138968.6
13.64283	145737.9
13.6457	152238.5
13.64857	181030.8
13.65142	207032.3
13.65428	220179.1
13.65715	219031.7
13.66002	215775.8
13.66288	200165.8
13.66575	179444.1
13.66862	172583.6
13.67147	153346.8
13.67433	148924.1
13.6772	150558.6
13.68007	145581.5
13.68293	149396.7
13.6858	154690.5
13.68865	169579.3
13.69152	178244.5
13.69438	194864.5
13.69725	212677.5
13.70012	209800.3
13.70298	203573.2
13.70585	214069.9
13.7087	195210.5
13.71157	185206.9
13.71443	180535.3
13.7173	168354.3
13.72017	169349.6
13.72303	173855.2
13.72588	158443.1
13.72875	163880
13.73162	163987.1
13.73448	172480.7
13.73735	183602
13.74022	209392.3
13.74308	246800.4
13.74593	297281.4
13.7488	354511.3
13.75167	349015.5
13.75453	325987.1
13.7574	287916.2
13.76027	272682.8
13.76312	262963.4
13.76598	255151.8
13.76885	254665.6
13.77172	243936
13.77458	217182.8
13.77745	200836.3
13.78032	209034.2
13.78317	213428.8
13.78603	217666.4
13.7889	218703
13.79177	205350.3
13.79463	191297.5
13.7975	180546.9
13.80035	168107
13.80322	168242.1
13.80608	169828.5
13.80895	159681
13.81182	165869.1
13.81468	173143.4
13.81755	166458.4
13.8204	174191.2
13.82327	172910.8
13.82613	177399.5
13.829	173471.9
13.83187	190575.7
13.83473	184594.7
13.83758	200783.4
13.84045	193847.2
13.84332	203906.6
13.84618	218034.3
13.84905	209010.3
13.85192	211401.6
13.85477	214880.2
13.85763	212358.8
13.8605	203446.1
13.86337	209261.1
13.86623	196256.5
13.8691	184377.5
13.87197	180615.9
13.87482	181802.5
13.87768	162521.5
13.88055	167371.4
13.88342	166447.9
13.88628	166811.6
13.88915	171371.3
13.892	163747.8
13.89487	162358.3
13.89773	165450.4
13.9006	161308.3
13.90347	162123.3
13.90633	158695.3
13.9092	148807.6
13.91205	164665.1
13.91492	167660
13.91778	201392.1
13.92065	301546.2
13.92352	621728.8
13.92638	1435152
13.92923	3199812
13.9321	6257262
13.95502	8916581
13.95788	7212040
13.96075	5888986
13.96362	4820834
13.96647	4089511
13.96933	3549599
13.9722	3049695
13.97507	2687117
13.97793	2357399
13.9808	2119987
13.98367	1897171
13.98652	1699199
13.98938	1549947
13.99225	1426636
13.99512	1327480
13.99798	1236371
14.00085	1154468
14.0037	1098204
14.00657	1018009
14.00943	981277.8
14.0123	924583.9
14.01517	869703.4
14.01803	836902.2
14.0209	808038.6
14.02375	762538.8
14.02662	729730.1
14.02948	708807.8
14.03235	692776.7
14.03522	649483
14.03808	634294.7
14.04093	631122.3
14.0438	588592.6
14.04667	578404.2
14.04953	562382.3
14.0524	573092.1
14.05527	557352.6
14.05813	528718.6
14.06098	521373.5
14.06385	504793.4
14.06672	495629.5
14.06958	473005.4
14.07245	478149.3
14.07532	476123
14.07817	460050.5
14.08103	455267.5
14.0839	441278.9
14.08677	450090.7
14.08963	427669.6
14.0925	411423.6
14.09537	409713.2
14.09822	399415.3
14.10108	381353.4
14.10395	370392.6
14.10682	364789.3
14.10968	364337.2
14.11255	366827.1
14.1154	354467.6
14.11827	350374
14.12113	344437.4
14.124	356454.2
14.12687	335544.9
14.12973	337667.9
14.1326	341855.9
14.13545	351933
14.13832	355278.5
14.14118	341274.9
14.14405	334562
14.14692	333286.6
14.14978	348225.4
14.15263	323687.3
14.1555	330708.4
14.15837	321293.7
14.16123	310905.7
14.1641	309717.3
14.16697	303812.7
14.16983	305175.1
14.17268	292245.5
14.17555	291291.5
14.17842	295562.1
14.18128	275366.2
14.18415	290370.5
14.18702	289917.6
14.18987	280468.8
14.19273	288796.8
14.1956	277333.7
14.19847	286575.1
14.20133	290043.6
14.2042	280045.9
14.20707	274690.3
14.20992	284081.6
14.21278	273571.3
14.21565	274695.1
14.21852	276474.4
14.22138	264326.5
14.22425	269513.2
14.2271	251187.8
14.22997	253184.6
14.23283	250669.8
14.2357	260558.3
14.23857	257995.3
14.24143	257789.2
14.2443	253363.9
14.24715	274331.6
14.25002	272910.5
14.25288	280710.4
14.25575	284657
14.25862	277025.5
14.26148	297859.2
14.26433	286059.5
14.2672	288489.8
14.27007	284214.7
14.27293	265354
14.2758	262007.6
14.27867	243856.3
14.28153	252904.9
14.28438	244535.1
14.28725	257040.8
14.29012	250707
14.29298	246426
14.29585	252965.4
14.29872	258481.5
14.30157	245912.2
14.30443	257048.4
14.3073	245147.5
14.31017	256370
14.31303	251628.3
14.3159	252134.8
14.31877	254281.3
14.32162	261192.5
14.32448	244445.2
14.32735	245737.9
14.33022	249741.5
14.33308	244467.8
14.33595	245800.3
14.3388	248945.9
14.34167	246772.2
14.34453	265969
14.3474	306590.2
14.35027	432876
14.35313	654488.3
14.356	981908.9
14.35885	1271172
14.36172	1580729
14.36458	1656147
14.36745	1518345
14.37032	1229591
14.37318	915382.6
14.37603	659305.3
14.3789	476798.2
14.38177	373063.7
14.38463	331613
14.3875	308635.5
14.39037	282423.8
14.39323	284213.8
14.39608	279639.5
14.39895	271369.2
14.40182	253567.1
14.40468	258594.9
14.40755	260634.5
14.41042	262405.3
14.41327	266433.8
14.41613	269395.5
14.419	270618.2
14.42187	270102.1
14.42473	285608.5
14.4276	274208.2
14.43047	272699.1
14.43332	273927.6
14.43618	268192.4
14.43905	265505.4
14.44192	261668.3
14.44478	260601.5
14.44765	252346.9
14.4505	268274.8
14.45337	256678
14.45623	254597.2
14.4591	252293.7
14.46197	264427
14.46483	258388
14.4677	275162
14.47055	301667
14.47342	316552.8
14.47628	337355.9
14.47915	333689.9
14.48202	355252.4
14.48488	345119.7
14.48773	342173.4
14.4906	328354.1
14.49347	311581.2
14.49633	295952.9
14.4992	290333.1
14.50207	296024.7
14.50493	282925.6
14.50778	294505.9
14.51065	307998.3
14.51352	296486.7
14.51638	307974.1
14.51925	325529.9
14.52212	337291.7
14.52497	360795.3
14.52783	366716.1
14.5307	373294.7
14.53357	370834.1
14.53643	344252
14.5393	337868
14.54217	324741.6
14.54502	327005.2
14.54788	330092.3
14.55075	321596.8
14.55362	334942.9
14.55648	341112.5
14.55935	328489.9
14.5622	342988.4
14.56507	352059.8
14.56793	346175.1
14.5708	356981.7
14.57367	360150.4
14.57653	367211.5
14.5794	396012.9
14.58225	390127.4
14.58512	392644.2
14.58798	402805.8
14.59085	426024
14.59372	439533.4
14.59658	435966.5
14.59943	452745.8
14.6023	480666.8
14.60517	473304
14.60803	486935.9
14.6109	507785
14.61377	514847.3
14.61663	526506.7
14.61948	540162.1
14.62235	571462.2
14.62522	581471.3
14.62808	594345.2
14.63095	632304.4
14.63382	633375.3
14.63667	639754.5
14.63953	659470
14.6424	673128.9
14.64527	710671.9
14.64813	722172.5
14.651	750440.3
14.65387	759772.7
14.65672	803797.4
14.65958	826589.7
14.66245	870788.6
14.66532	871266.8
14.66818	919852
14.67105	923980.1
14.6739	948236.7
14.67677	944681.6
14.67963	936297.4
14.6825	912373.4
14.68537	926822.1
14.68823	952687.9
14.69108	946595.5
14.69395	961136.3
14.69682	986460
14.69968	1055701
14.70255	1033667
14.70542	1082995
14.70828	1106102
14.71113	1119062
14.714	1110058
14.71687	1150414
14.71973	1168101
14.7226	1185275
14.72547	1188622
14.72832	1221465
14.73118	1247263
14.73405	1222070
14.73692	1242202
14.73978	1247078
14.74265	1277359
14.74552	1272172
14.74837	1276269
14.75123	1281262
14.7541	1257564
14.75697	1271179
14.75983	1276511
14.7627	1296784
14.76555	1314189
14.76842	1317501
14.77128	1324797
14.77415	1325306
14.77702	1353749
14.77988	1312733
14.78275	1331804
14.7856	1365078
14.78847	1349974
14.79133	1341600
14.7942	1337712
14.79707	1345131
14.79993	1333823
14.80278	1347438
14.80565	1346467
14.80852	1334018
14.81138	1302083
14.81425	1345055
14.81712	1294877
14.81998	1299839
14.82283	1301079
14.8257	1318566
14.82857	1270863
14.83143	1314202
14.8343	1355393
14.83717	1415154
14.84002	1391262
14.84288	1408842
14.84575	1380674
14.84862	1337659
14.85148	1296275
14.85435	1296312
14.85722	1218101
14.86007	1240800
14.86293	1220309
14.8658	1195593
14.86867	1168035
14.87153	1128953
14.8744	1144978
14.87725	1151152
14.88012	1123811
14.88298	1128772
14.88585	1111338
14.88872	1092331
14.89158	1099601
14.89445	1101697
14.8973	1066202
14.90017	1052021
14.90303	1052298
14.9059	1058609
14.90877	1032430
14.91163	1038516
14.91448	1016167
14.91735	1016827
14.92022	998089.6
14.92308	979811
14.92595	990025.1
14.92882	967921.4
14.93168	974062.6
14.93453	995226.4
14.9374	994966.6
14.94027	974772.6
14.94313	973299.9
14.946	971108.2
14.94887	974331.4
14.95172	967876.8
14.95458	962235.1
14.95745	946483.9
14.96032	898997.4
14.96318	913596.8
14.96605	857337.4
14.96892	865580.7
14.97177	862449.2
14.97463	835344.3
14.9775	816647.3
14.98037	833409.4
14.98323	825988.4
14.9861	777599.4
14.98895	804514.4
14.99182	778479.2
14.99468	762527.8
14.99755	759953.7
15.00042	742543.6
15.00328	761081.4
15.00615	751528
15.009	737314.4
15.01187	726917.9
15.01473	727119.4
15.0176	716452.1
15.02047	695706.3
15.02333	716206.2
15.02618	706985.5
15.02905	697983.7
15.03192	680820.1
15.03478	707058.5
15.03765	668488
15.04052	686899
15.04338	699538.4
15.04623	680931
15.0491	705106.8
15.05197	669296.7
15.05483	675441.3
15.0577	659742.9
15.06057	654349.9
15.06342	640552.4
15.06628	606985.4
15.06915	608898.7
15.07202	614645.4
15.07488	574942.4
15.07775	597675.1
15.08062	610429.3
15.08347	595900.6
15.08633	593473.8
15.0892	581790
15.09207	590289
15.09493	584061.4
15.0978	592517.4
15.10065	578869.1
15.10352	570393.9
15.10638	568197.2
15.10925	566908.3
15.11212	562428
15.11498	543650.2
15.11785	519209.1
15.1207	509478.6
15.12357	510135.9
15.12643	497135.4
15.1293	492938.6
15.13217	490428
15.13503	492676.6
15.13788	493233.8
15.14075	495946.3
15.14362	480955.8
15.14648	485219.8
15.14935	472711
15.15222	467082.8
15.15508	477199.8
15.15793	460131.8
15.1608	462443
15.16367	465064.7
15.16653	456455
15.1694	453921.5
15.17227	448801.1
15.17512	446184.7
15.17798	436798.1
15.18085	446886.5
15.18372	437665.7
15.18658	433358.8
15.18945	435672.5
15.19232	420345
15.19517	441775.2
15.19803	423582.9
15.2009	413936.8
15.20377	413127.5
15.20663	405823.1
15.2095	394704.5
15.21235	405113
15.21522	408363.2
15.21808	400499.5
15.22095	395001.1
15.22382	389819
15.22668	390283.4
15.22955	395688.1
15.2324	385250.8
15.23527	381131.9
15.23813	369956.6
15.241	373151.5
15.24387	375725.8
15.24673	378681.6
15.24958	375787.3
15.25245	384749.3
15.25532	401388.8
15.25818	383958.3
15.26105	375867.6
15.26392	391261.6
15.26678	383895.8
15.26963	390792.7
15.2725	397347.7
15.27537	410715.7
15.27823	403319.4
15.2811	413034.5
15.28397	427225
15.28682	433939.1
15.28968	427352
15.29255	431055.6
15.29542	426079.8
15.29828	413084
15.30115	397902.8
15.30402	391997.2
15.30687	400454.8
15.30973	376244.7
15.3126	393994.2
15.31547	380001.7
15.31833	373243.8
15.3212	370029.3
15.32405	361630.7
15.32692	367645.9
15.32978	348084.1
15.33265	372702.3
15.33552	355757.2
15.33838	355216.5
15.34125	351388.8
15.3441	357038.9
15.34697	361873
15.34983	352000.3
15.3527	365957.1
15.35557	355706.6
15.35843	358823.7
15.36128	349859.3
15.36415	353134.1
15.36702	360410.6
15.36988	367469.7
15.37275	377527.1
15.37562	365301
15.37848	355631.8
15.38133	347046.2
15.3842	333352.8
15.38707	366763.1
15.38993	332883.2
15.3928	341828.3
15.39567	343502.2
15.39852	339460.2
15.40138	342768
15.40425	332294.4
15.40712	336225.5
15.40998	339528.7
15.41285	341234.9
15.41572	348677.8
15.41857	336736.1
15.42143	337512.9
15.4243	329979.3
15.42717	360503.8
15.43003	351696.1
15.4329	330731.3
15.43575	336333.8
15.43862	328837.4
15.44148	341620.6
15.44435	328760.3
15.44722	347349.1
15.45008	335526.9
15.45295	328507.3
15.4558	334418.6
15.45867	321369.1
15.46153	343954.1
15.4644	327008.4
15.46727	325413.2
15.47013	323133.9
15.47298	318950
15.47585	334987.7
15.47872	328697.9
15.48158	335826.8
15.48445	318385.6
15.48732	313056.4
15.49017	307882.9
15.49303	323882.3
15.4959	313291.3
15.49877	319397.1
15.50163	325537.9
15.5045	329800.9
15.50737	321228.1
15.51022	324046.2
15.51308	334007.2
15.51595	340576.9
15.51882	360977.2
15.52168	393124
15.52455	436603.8
15.5274	483900.6
15.53027	554642.9
15.53313	653194.6
15.536	715057.9
15.53887	757570.7
15.54173	733869
15.5446	695987.1
15.54745	609100.3
15.55032	544277.7
15.55318	456668.9
15.55605	400876.6
15.55892	373243.5
15.56178	349360.1
15.56463	339983.7
15.5675	330638.4
15.57037	324578.8
15.57323	340722.4
15.5761	329324.6
15.57897	323577.9
15.58183	333081.8
15.58468	334578.1
15.58755	326805.2
15.59042	317938.9
15.59328	325407.6
15.59615	324049.2
15.59902	331399.8
15.60187	337492.5
15.60473	323372
15.6076	343781.4
15.61047	332527.9
15.61333	340602.2
15.6162	340702
15.61907	359471.8
15.62192	359425.2
15.62478	351930.6
15.62765	342068.4
15.63052	332536.8
15.63338	308076.9
15.63625	334154.7
15.6391	313849.2
15.64197	301610.5
15.64483	317361.3
15.6477	306508.6
15.65057	304981.9
15.65343	307721.8
15.6563	309881.4
15.65915	330132.5
15.66202	305215.9
15.66488	312058.8
15.66775	315789.8
15.67062	316139.1
15.67348	323055.3
15.67633	310210.8
15.6792	308126.2
15.68207	307920.5
15.68493	332539.4
15.6878	323413.9
15.69067	310138.4
15.69353	309593.8
15.69638	308111.5
15.69925	312015.3
15.70212	310014.7
15.70498	307807.5
15.70785	317564.2
15.71072	322140.6
15.71357	295344.8
15.71643	313505.2
15.7193	311901
15.72217	310142
15.72503	313867.2
15.7279	308038.4
15.73077	310468
15.73362	310137.4
15.73648	321002.5
15.73935	309774.3
15.74222	311338
15.74508	315394.7
15.74795	414330.8
15.7508	713685.8
15.75367	1106102
15.75653	1453770
15.7594	1668534
15.76227	1827164
15.76513	1870842
15.768	1898468
15.77085	2001430
15.77372	1951916
15.77658	2014080
15.77945	2018022
15.78232	2005884
15.78518	2038770
15.78805	2031034
15.7909	1994116
15.79377	1991827
15.79663	1989420
15.7995	1993224
15.80237	1982346
15.80523	1935069
15.8081	1946779
15.81097	1926015
15.81382	1872279
15.81668	1849894
15.81955	1868865
15.82242	1818086
15.82528	1797567
15.82815	1799686
15.83102	1735155
15.83387	1702972
15.83673	1698137
15.8396	1681661
15.84247	1633089
15.84533	1649624
15.8482	1615220
15.85107	1593016
15.85392	1578103
15.85678	1534805
15.85965	1519202
15.86252	1497963
15.86538	1464407
15.86825	1456688
15.87112	1424733
15.87397	1432647
15.87683	1408100
15.8797	1424716
15.88257	1384822
15.88543	1363777
15.8883	1363604
15.89117	1370409
15.89403	1346186
15.89688	1311095
15.89975	1290135
15.90262	1272020
15.90548	1285774
15.90835	1236734
15.91122	1236738
15.91408	1243649
15.91693	1192511
15.9198	1200745
15.92267	1195402
15.92553	1190482
15.9284	1173652
15.93127	1169001
15.93413	1140086
15.93698	1105212
15.93985	1136247
15.94272	1143425
15.94558	1135225
15.94845	1122550
15.95132	1116290
15.95418	1102283
15.95703	1094674
15.9599	1087756
15.96277	1072898
15.96563	1096129
15.9685	1073665
15.97137	1042276
15.97423	1037392
15.97708	1045619
15.97995	1008258
15.98282	1012936
15.98568	1008413
15.98855	997847.5
15.99142	1007662
15.99428	976321.5
15.99715	957363.9
16	998934.3
16.00287	950858.1
16.00573	954348.8
16.0086	970110.4
16.01147	970704.9
16.01433	936523.5
16.0172	921414.7
16.02005	921720.7
16.02292	907546.4
16.02578	935964.3
16.02865	917266.4
16.03152	895195.5
16.03438	898993.8
16.03725	886048.7
16.0401	872644.5
16.04297	907064.1
16.04583	879514
16.0487	866748.6
16.05157	869632.1
16.05443	886311.7
16.0573	883646.4
16.06015	904495.3
16.06302	888883.8
16.06588	902467.6
16.06875	933939.1
16.07162	930761
16.07448	953009.4
16.07735	938774.4
16.08022	954740.3
16.08307	931672.3
16.08593	937407.4
16.0888	919260.8
16.09167	886693.6
16.09453	834037.1
16.0974	835820.9
16.10027	867168.4
16.10312	825152.2
16.10598	831978.3
16.10885	816289.8
16.11172	796560.2
16.11458	797466.2
16.11745	800661.8
16.12032	778871.5
16.12317	782899.8
16.12603	783981.6
16.1289	775112.8
16.13177	738989.6
16.13463	768341.9
16.1375	754728.3
16.14037	745700.7
16.14322	773866.6
16.14608	747816.1
16.14895	743842
16.15182	742901
16.15468	744864.7
16.15755	750062.1
16.16042	710973.8
16.16328	731949.1
16.16613	707486.8
16.169	722004.8
16.17187	735901.4
16.17473	721324.3
16.1776	705041.2
16.18047	720001.4
16.18333	706666.3
16.18618	705656.3
16.18905	694508
16.19192	698545.4
16.19478	722178.1
16.19765	733455.9
16.20052	706716
16.20338	689856.6
16.20623	704107.6
16.2091	699390.8
16.21197	685567.6
16.21483	692815.4
16.2177	696126.3
16.22057	705244.2
16.22343	706709.3
16.22628	718623.3
16.22915	742237.3
16.23202	748446.7
16.23488	754878.3
16.23775	769616.6
16.24062	761115.4
16.24348	765704.6
16.24633	761271.8
16.2492	774417.5
16.25207	741265.3
16.25493	754765.6
16.2578	744740.8
16.26067	767607.9
16.26353	774905
16.2664	826540.3
16.26925	891542.3
16.27212	939567.8
16.27498	1008088
16.27785	1026912
16.28072	1022998
16.28358	1011626
16.28645	963180.7
16.2893	914754.9
16.29217	837809.1
16.29503	818646.3
16.2979	764794.5
16.30077	730046.6
16.30363	724908.2
16.3065	735188
16.30935	739185.2
16.31222	737274.6
16.31508	760164.3
16.31795	754698.2
16.32082	752020.3
16.32368	747947.6
16.32655	739416.9
16.3294	766527.3
16.33227	753379.9
16.33513	759839.4
16.338	764020.3
16.34087	805844.1
16.34373	801495.6
16.3466	802575.6
16.34945	826530.1
16.35232	820063.1
16.35518	833721.9
16.35805	827939.2
16.36092	865296.9
16.36378	853253.3
16.36665	864483.3
16.3695	886002.4
16.37237	893075
16.37523	904398.3
16.3781	917957.9
16.38097	903833.3
16.38383	938047
16.3867	920166
16.38957	963395.1
16.39242	969910.5
16.39528	1042102
16.39815	1009425
16.40102	1010729
16.40388	1034149
16.40675	1058987
16.40962	1066553
16.41247	1103613
16.41533	1084793
16.4182	1114287
16.42107	1076817
16.42393	1088013
16.4268	1097801
16.42967	1072737
16.43252	1118600
16.43538	1127616
16.43825	1117344
16.44112	1138440
16.44398	1143848
16.44685	1140261
16.44972	1164530
16.45257	1183114
16.45543	1182110
16.4583	1212627
16.46117	1227426
16.46403	1219258
16.4669	1232144
16.46977	1215011
16.47262	1225775
16.47548	1238322
16.47835	1247350
16.48122	1266819
16.48408	1287705
16.48695	1296401
16.48982	1315409
16.49268	1337828
16.49553	1339935
16.4984	1336548
16.50127	1324001
16.50413	1347685
16.507	1350974
16.50987	1375533
16.51273	1353639
16.51558	1354034
16.51845	1346570
16.52132	1390421
16.52418	1360990
16.52705	1360681
16.52992	1352247
16.53278	1375640
16.53563	1408093
16.5385	1389340
16.54137	1395122
16.54423	1399445
16.5471	1416590
16.54997	1378072
16.55283	1424085
16.55568	1434974
16.55855	1393250
16.56142	1427996
16.56428	1445079
16.56715	1418915
16.57002	1432037
16.57288	1425806
16.57575	1429355
16.5786	1406720
16.58147	1452041
16.58433	1433149
16.5872	1436541
16.59007	1397504
16.59293	1440998
16.5958	1443036
16.59865	1459446
16.60152	1433138
16.60438	1437849
16.60725	1417690
16.61012	1393757
16.61298	1405029
16.61585	1415596
16.6187	1413043
16.62157	1452282
16.62443	1458239
16.6273	1454772
16.63017	1462502
16.63303	1467970
16.6359	1478575
16.63875	1482797
16.64162	1456836
16.64448	1474211
16.64735	1466970
16.65022	1445440
16.65308	1438961
16.65595	1438864
16.6588	1407370
16.66167	1385952
16.66453	1406066
16.6674	1373572
16.67027	1401838
16.67313	1396369
16.676	1373173
16.67885	1419096
16.68172	1349622
16.68458	1359920
16.68745	1357266
16.69032	1323485
16.69318	1310844
16.69605	1328986
16.69892	1285421
16.70177	1330410
16.70463	1319346
16.7075	1280160
16.71037	1313867
16.71323	1281750
16.7161	1271591
16.71897	1283657
16.72182	1261267
16.72468	1272288
16.72755	1260125
16.73042	1258551
16.73328	1233272
16.73615	1234634
16.73902	1233997
16.74187	1227559
16.74473	1216902
16.7476	1196134
16.75047	1177778
16.75333	1201294
16.7562	1166677
16.75907	1178197
16.76192	1177752
16.76478	1146490
16.76765	1152794
16.77052	1165988
16.77338	1150761
16.77625	1155620
16.77912	1153306
16.78197	1136796
16.78483	1151512
16.7877	1147777
16.79057	1166596
16.79343	1158617
16.7963	1141539
16.79917	1183712
16.80203	1152709
16.80488	1141865
16.80775	1151796
16.81062	1158771
16.81348	1124132
16.81635	1111640
16.81922	1115078
16.82208	1128088
16.82493	1110719
16.8278	1082759
16.83067	1096232
16.83353	1082744
16.8364	1060412
16.83927	1055143
16.84213	1051110
16.84498	1059893
16.84785	1013648
16.85072	1007246
16.85358	1007988
16.85645	1000504
16.85932	992301.6
16.86218	994918.1
16.86503	995639.6
16.8679	994451.8
16.87077	978274.7
16.87363	976926.8
16.8765	964771.4
16.87937	950377.3
16.88223	947984.5
16.88508	939635.5
16.88795	924868.4
16.89082	921181.9
16.89368	921518.6
16.89655	911612.4
16.89942	902733.1
16.90228	893159.7
16.90515	905901.5
16.908	883126.2
16.91087	875861.6
16.91373	882362.8
16.9166	859125.8
16.91947	846724.4
16.92233	868597
16.9252	869524.3
16.92805	846660.4
16.93092	844433.8
16.93378	858747.4
16.93665	833587.9
16.93952	828453.5
16.94238	822197.6
16.94525	835191.6
16.9481	810899.4
16.95097	819438.4
16.95383	824071
16.9567	794484.9
16.95957	785651.4
16.96243	801181.4
16.9653	795298.1
16.96815	805513.5
16.97102	780310.1
16.97388	799272.4
16.97675	776544.3
16.97962	775406.9
16.98248	773219.3
16.98535	763212.9
16.98822	761449.3
16.99107	758287.8
16.99393	744287.1
16.9968	761455
16.99967	746093.6
17.00253	754236.3
17.0054	744770.8
17.00827	727073.1
17.01112	757709.9
17.01398	737811.8
17.01685	739992.3
17.01972	705079.6
17.02258	702312.4
17.02545	693588.1
17.02832	716479.1
17.03117	705006.7
17.03403	685044.3
17.0369	673946.7
17.03977	674427.6
17.04263	670754.4
17.0455	667548.5
17.04837	668763.6
17.05122	668693.6
17.05408	683538.9
17.05695	662759.2
17.05982	665690.5
17.06268	650841.2
17.06555	634445.4
17.06842	640068.9
17.07128	650143.9
17.07413	635125.6
17.077	634239.4
17.07987	642655.6
17.08273	645292.4
17.0856	630452.3
17.08847	616947.6
17.09133	620661.3
17.09418	629714.1
17.09705	629198.9
17.09992	624187.2
17.10278	621122.6
17.10565	624941.5
17.10852	625310.6
17.11138	614746.3
17.11423	602960.9
17.1171	608094.4
17.11997	603501.1
17.12283	582784.8
17.1257	601981.4
17.12857	579581.9
17.13143	584690.6
17.13428	576084.1
17.13715	584300.6
17.14002	603727.1
17.14288	597099.1
17.14575	594772.3
17.14862	592259.5
17.15148	587780.8
17.15433	574736.6
17.1572	576189.8
17.16007	564488.4
17.16293	581843
17.1658	583030.3
17.16867	568601.4
17.17153	553833.3
17.17438	567372.4
17.17725	564145.7
17.18012	549224.1
17.18298	546233.4
17.18585	530066.1
17.18872	552980.9
17.19158	557538.2
17.19443	537383.6
17.1973	542278.3
17.20017	541432.2
17.20303	538187.3
17.2059	557416.1
17.20877	549177.3
17.21163	546312.4
17.21448	534653.9
17.21735	566807.2
17.22022	578625.1
17.22308	537262.1
17.22595	551251.3
17.22882	532040.5
17.23168	556464
17.23455	543501.6
17.2374	529925.9
17.24027	517694.7
17.24313	526670.9
17.246	514934.8
17.24887	524448.1
17.25173	518772
17.2546	514860.9
17.25745	492979.5
17.26032	503147.5
17.26318	503183.5
17.26605	487141
17.26892	504956
17.27178	488773.6
17.27465	492304.2
17.2775	513339.3
17.28037	501586.4
17.28323	496275.2
17.2861	484457.3
17.28897	493330.3
17.29183	487980.3
17.2947	488338.2
17.29755	485727.4
17.30042	488323
17.30328	461044.7
17.30615	488116.2
17.30902	470297.5
17.31188	492087
17.31475	483261
17.3176	476235.6
17.32047	467494.2
17.32333	467952.8
17.3262	480980.8
17.32907	456529.5
17.33193	468075.9
17.3348	460323.4
17.33767	458826.8
17.34052	448857
17.34338	448624.4
17.34625	452705.3
17.34912	450944.2
17.35198	447201.4
17.35485	445845.1
17.35772	468538.1
17.36057	438202
17.36343	429786.9
17.3663	458428.8
17.36917	443958.8
17.37203	433686
17.3749	443803
17.37777	461365.3
17.38062	442110
17.38348	452835.3
17.38635	469852.9
17.38922	444865.8
17.39208	458817.2
17.39495	464754.8
17.39782	462024.8
17.40067	455094.8
17.40353	469368.2
17.4064	449714
17.40927	441633.5
17.41213	435031.7
17.415	448192.8
17.41787	420163.8
17.42072	423138.3
17.42358	426023.7
17.42645	423386.2
17.42932	402521.9
17.43218	425360.8
17.43505	415736.7
17.43792	410413.1
17.44077	409464.7
17.44363	414188.1
17.4465	414935.3
17.44937	415971.9
17.45223	426112.6
17.4551	410191.9
17.45797	422097.7
17.46082	419695.7
17.46368	410201.3
17.46655	416422.2
17.46942	413731.5
17.47228	426203.3
17.47515	430792.8
17.47802	414553.2
17.48087	417821.2
17.48373	424969.5
17.4866	404711.3
17.48947	406452.5
17.49233	413247.5
17.4952	415955.3
17.49807	407398.1
17.50092	405744.4
17.50378	414491.4
17.50665	419284.2
17.50952	399567.7
17.51238	409507.4
17.51525	411342.5
17.51812	418848.9
17.52097	399453.9
17.52383	407060.2
17.5267	411691.5
17.52957	396245.9
17.53243	410971.4
17.5353	395081.6
17.53817	401566.6
17.54102	393539.4
17.54388	402169.6
17.54675	396525.2
17.54962	381701.3
17.55248	389591.5
17.55535	393840.8
17.55822	388798.4
17.56107	398142.3
17.56393	389520.1
17.5668	384806.9
17.56967	386136.5
17.57253	400797.2
17.5754	401999.3
17.57827	390554.7
17.58112	376712.6
17.58398	381792.7
17.58685	390445.4
17.58972	381323.8
17.59258	387702.9
17.59545	386078
17.59832	394495.2
17.60117	390701.6
17.60403	377858.6
17.6069	374590.8
17.60977	384959.9
17.61263	380330.2
17.6155	381741.1
17.61837	384118.7
17.62122	381555
17.62408	381706.8
17.62695	385778.6
17.62982	384603.1
17.63268	392431.5
17.63555	381083.4
17.63842	393099.4
17.64127	375687.2
17.64413	381178.9
17.647	381764
17.64987	373293.3
17.65273	384496.3
17.6556	395231.9
17.65847	379462.3
17.66132	384918.4
17.66418	374539.3
17.66705	386005.4
17.66992	386045.4
17.67278	372997.5
17.67565	362133.7
17.67852	362614.6
17.68137	368327.2
17.68423	373469.6
17.6871	369620.1
17.68997	369368.6
17.69283	379156.4
17.6957	378386.4
17.69857	380386.9
17.70142	370304.3
17.70428	382448.5
17.70715	389760.3
17.71002	386397.8
17.71288	381489.3
17.71575	386361.3
17.71862	378334.2
17.72147	382079.8
17.72433	372731.1
17.7272	389142.2
17.73007	372819.5
17.73293	387168
17.7358	368912.1
17.73867	380636.8
17.74152	383960.2
17.74438	372765.2
17.74725	381514.8
17.75012	359612.3
17.75298	365705.6
17.75585	368446.5
17.75872	375417.9
17.76157	381664.7
17.76443	377660.4
17.7673	376783.8
17.77017	368959.2
17.77303	375183
17.7759	367045.5
17.77877	375272.9
17.78162	383232.2
17.78448	371846.4
17.78735	351975.3
17.79022	371472.9
17.79308	383679
17.79595	375718.9
17.79882	367211.3
17.80167	369116
17.80453	373724.5
17.8074	387291.6
17.81027	386473.4
17.81313	370162.7
17.816	376715.8
17.81885	372692.6
17.82172	363152.8
17.82458	374092.5
17.82745	369873.9
17.83032	377039.4
17.83318	374297.1
17.83605	363122
17.8389	382899.8
17.84177	380495.3
17.84463	393046.2
17.8475	392129.1
17.85037	403188.2
17.85323	391922.3
17.8561	378879.7
17.85895	385037.4
17.86182	396187.9
17.86468	391472.2
17.86755	399025.7
17.87042	399022
17.87328	395517.1
17.87615	380792.6
17.87902	397272.1
17.88187	388617.3
17.88473	384975.2
17.8876	384165.3
17.89047	382734.3
17.89333	375569.3
17.8962	375152.4
17.89907	383598.1
17.90192	386620.3
17.90478	371346.4
17.90765	382870.4
17.91052	371885
17.91338	375680.7
17.91625	376962.7
17.91912	375188.2
17.92197	375836.7
17.92483	372919.1
17.9277	368980.3
17.93057	366836.4
17.93343	376510.7
17.9363	376864.5
17.93917	352787.8
17.94202	360205.6
17.94488	364600.9
17.94775	373233.9
17.95062	352776.9
17.95348	360113.3
17.95635	348989.7
17.95922	361106.8
17.96207	355578.2
17.96493	356245.2
17.9678	350334.5
17.97067	359277.7
17.97353	346616
17.9764	355908.9
17.97927	364976.9
17.98212	345179.1
17.98498	357718
17.98785	345984.1
17.99072	347302.8
17.99358	348553.9
17.99645	366102.1
17.9993	365629.9
18.00217	351458.9
18.00503	350349.8
18.0079	356333.2
18.01077	353615.1
18.01363	364330.7
18.0165	351304.8
18.01935	356132.6
18.02222	354708.7
18.02508	339770.6
18.02795	362160.3
18.03082	336045.6
18.03368	338928.1
18.03655	351043.4
18.0394	350194.6
18.04227	351354.5
18.04513	347416.5
18.048	347678.7
18.05087	335229.3
18.05373	361678
18.0566	341688.8
18.05945	362507.9
18.06232	349584.9
18.06518	350056.6
18.06805	366128.1
18.07092	336939.3
18.07378	339294.8
18.07665	344730.9
18.0795	354414.8
18.08237	361440.8
18.08523	355693.8
18.0881	347229.8
18.09097	357306.5
18.09383	369836
18.0967	359176.3
18.09957	374672.1
18.10242	375325
18.10528	394084.2
18.10815	396257.3
18.11102	410040.5
18.11388	410135.3
18.11675	439412.5
18.1196	435648.2
18.12247	428683.2
18.12533	449388.3
18.1282	461421.8
18.13107	448081.6
18.13393	438727.8
18.1368	431098.6
18.13967	424311.6
18.14252	422687
18.14538	404369.5
18.14825	403917.6
18.15112	388169.4
18.15398	399911.7
18.15685	384432
18.15972	376621.6
18.16257	380507.7
18.16543	365506.2
18.1683	378970.7
18.17117	369839.8
18.17403	352138.8
18.1769	369941.1
18.17977	363330.7
18.18262	355552.9
18.18548	355336.6
18.18835	369525.6
18.19122	366890
18.19408	367830.9
18.19695	371357.2
18.19982	355461.8
18.20267	370055.5
18.20553	354780.1
18.2084	375672.6
18.21127	369162
18.21413	381642.4
18.217	365977.1
18.21987	361344.9
18.22273	347351.4
18.22558	357773.3
18.22845	353893.9
18.23132	349359.9
18.23418	352679.5
18.23705	345195.9
18.23992	366116.6
18.24278	353880.5
18.24563	354784.8
18.2485	358927
18.25137	350840.8
18.25423	362107.1
18.2571	351659.3
18.25997	359455.8
18.26283	357961
18.26568	342975.6
18.26855	348488.8
18.27142	352993
18.27428	347804.2
18.27715	363710.2
18.28002	364851.8
18.28288	356822.5
18.28573	345944.1
18.2886	349975.5
18.29147	361016.8
18.29433	350724.3
18.2972	335360.4
18.30007	340644.1
18.30293	337771.8
18.30578	332248.4
18.30865	340683.4
18.31152	338745.5
18.31438	330054.6
18.31725	350638.4
18.32012	336075.1
18.32298	355763
18.32583	355268.7
18.3287	348135.8
18.33157	356502.3
18.33443	344036.1
18.3373	360432.6
18.34017	349111.1
18.34303	354233.3
18.34588	363662.6
18.34875	354926
18.35162	355529.9
18.35448	347250.3
18.35735	336900.7
18.36022	350250.2
18.36308	349977.9
18.36593	354562.6
18.3688	350425.6
18.37167	353930.1
18.37453	334199.1
18.3774	335737.2
18.38027	345319.2
18.38313	344205.3
18.38598	338880.9
18.38885	336669.9
18.39172	329456.1
18.39458	321431.3
18.39745	337338
18.40032	341615.8
18.40318	330584.8
18.40603	339986.8
18.4089	327166.1
18.41177	337811.6
18.41463	332468.7
18.4175	326229.3
18.42037	328665.8
18.42323	322649.1
18.42608	343692.8
18.42895	338455.7
18.43182	333343.7
18.43468	348679.8
18.43755	343624.9
18.44042	339568.8
18.44328	347098.4
18.44613	365925
18.449	339960.7
18.45187	349703.3
18.45473	343194.8
18.4576	337151.2
18.46047	351458.2
18.46333	342604.8
18.46618	347410.9
18.46905	353259.6
18.47192	347751.5
18.47478	341785.2
18.47765	344031.8
18.48052	338843
18.48338	346094.7
18.48623	351214.7
18.4891	344553.5
18.49197	335078.3
18.49483	353860.7
18.4977	340059.5
18.50057	337516.9
18.50343	330189.7
18.50628	340337.9
18.50915	343130.1
18.51202	331278.2
18.51488	334689.6
18.51775	328320.5
18.52062	328736
18.52348	322716.4
18.52635	351304.2
18.5292	334951.2
18.53207	332074.3
18.53493	337867.7
18.5378	328693.4
18.54067	340544.2
18.54353	331501.7
18.5464	337016.8
18.54925	341299.1
18.55212	326216.5
18.55498	333548.3
18.55785	337236.1
18.56072	316006.4
18.56358	327027.6
18.56645	330857.6
18.5693	323710.7
18.57217	335421.9
18.57503	336837.3
18.5779	324511.5
18.58077	327200.4
18.58363	327062.6
18.5865	347609.2
18.58935	327510.6
18.59222	320662.1
18.59508	318458.6
18.59795	328719.9
18.60082	309814.8
18.60368	329391.7
18.60653	326511
18.6094	331213.8
18.61227	333390.5
18.61513	321863.1
18.618	323321.6
18.62087	331874.4
18.62373	323090.5
18.62658	331206.1
18.62945	341129.9
18.63232	336986.8
18.63518	332111.1
18.63805	347240.2
18.64092	347333.7
18.64378	338841.7
18.64663	348653.2
18.6495	341911.5
18.65237	348066.2
18.65523	338138.7
18.6581	336983.3
18.66097	340483.5
18.66383	352316.9
18.66668	326100.3
18.66955	342633
18.67242	326989.3
18.67528	343489.6
18.67815	337376.3
18.68102	329706
18.68387	319711.1
18.68673	326815.1
18.6896	338715.3
18.69247	347592.3
18.69533	329221.7
18.6982	326291.4
18.70107	329951.3
18.70392	340140.6
18.70678	325536.4
18.70965	321294.7
18.71252	324506.6
18.71538	321933.7
18.71825	320925.9
18.72112	328084.7
18.72397	325482.9
18.72683	322581.6
18.7297	320489.1
18.73257	314153.2
18.73543	318965.5
18.7383	335165.2
18.74117	328892.6
18.74402	328577.8
18.74688	319496.6
18.74975	315613
18.75262	322164.3
18.75548	344257.1
18.75835	351156.8
18.76122	361765.6
18.76407	352501.9
18.76693	363299.8
18.7698	371584.3
18.77267	393382
18.77553	420471.8
18.7784	423580.9
18.78127	444807.7
18.78412	467981.1
18.78698	477301.4
18.78985	491644.4
18.79272	514105
18.79558	514872.9
18.79845	501877.2
18.80132	476600.5
18.80417	482463.7
18.80703	478282.8
18.8099	457790.6
18.81277	423778.3
18.81563	430743.8
18.8185	399363.9
18.82137	381801.6
18.82422	381306.8
18.82708	361630.1
18.82995	348226.8
18.83282	355685.7
18.83568	347678
18.83855	357723.6
18.84142	338857.7
18.84427	362569.8
18.84713	342847.8
18.85	346084.3
18.85287	349349.8
18.85573	345856.8
18.8586	323201.6
18.86147	332586.6
18.86432	332150.2
18.86718	339906.6
18.87005	338546.3
18.87292	335102.3
18.87578	328291.1
18.87865	333770
18.8815	326238.3
18.88437	338625.6
18.88723	328327.7
18.8901	336331.6
18.89297	341912.1
18.89583	338371.9
18.8987	330736.3
18.90155	336541.6
18.90442	331466.1
18.90728	337097.6
18.91015	329054.6
18.91302	336414.5
18.91588	321424.8
18.91875	329891.4
18.9216	322574.1
18.92447	328360.8
18.92733	339635.4
18.9302	336624
18.93307	327557.6
18.93593	336660.1
18.9388	326750.6
18.94165	341033
18.94452	340800.4
18.94738	329642.2
18.95025	320768.4
18.95312	320500.7
18.95598	322315.8
18.95885	314382.6
18.9617	323863.4
18.96457	322144
18.96743	332947
18.9703	326872.2
18.97317	332664.4
18.97603	328414.3
18.97888	319217.2
18.98175	327331.4
18.98462	325165.9
18.98748	321466.5
18.99035	330437.1
18.99322	326780.7
18.99608	321488.2
18.99893	334080.7
19.0018	319884.4
19.00467	329762.1
19.00753	323006.1
19.0104	334968.8
19.01327	332911.2
19.01613	328775.7
19.01898	327698.9
19.02185	318533.1
19.02472	333672.1
19.02758	338076.8
19.03045	332208.6
19.03332	332548
19.03618	325727
19.03903	330118.4
19.0419	328177.2
19.04477	320031.5
19.04763	329313.1
19.0505	321666
19.05337	337447
19.05623	332406.3
19.05908	325169.2
19.06195	340462.1
19.06482	330575.9
19.06768	333626.4
19.07055	332184.7
19.07342	328476.3
19.07628	317518.5
19.07913	328741.9
19.082	322781.8
19.08487	320705.7
19.08773	313724.1
19.0906	326114.7
19.09347	318564.9
19.09632	321230.7
19.09918	321470
19.10205	328780.2
19.10492	335958.7
19.10778	337493.3
19.11065	325142.4
19.11352	336340.7
19.11637	329973.2
19.11923	325154.7
19.1221	335458.2
19.12497	316115.7
19.12783	328645.4
19.1307	326662.2
19.13357	324610.6
19.13642	331095.6
19.13928	318515.8
19.14215	319314.8
19.14502	316938.6
19.14788	334332.7
19.15075	322663.6
19.15362	319986
19.15647	318556.3
19.15933	319840.9
19.1622	321643
19.16507	322596.5
19.16793	318370.9
19.1708	321024.8
19.17365	321324.9
19.17652	327830.9
19.17938	325076
19.18225	321267
19.18512	333805.2
19.18798	329198.9
19.19085	333995.7
19.1937	334796.8
19.19657	325294
19.19943	324228.4
19.2023	330509.1
19.20517	339358.9
19.20803	346153.2
19.2109	339128.3
19.21375	317571.6
19.21662	317145.6
19.21948	340989.1
19.22235	326634.5
19.22522	333038.9
19.22808	332346.6
19.23095	321389.4
19.2338	320277.4
19.23667	320912.1
19.23953	326559.6
19.2424	326916.2
19.24527	316185.3
19.24813	320280
19.251	321829.7
19.25385	321717.9
19.25672	319134.1
19.25958	307072.6
19.26245	309029.8
19.26532	302053
19.26818	307408.6
19.27103	319181
19.2739	316729.3
19.27677	324894.8
19.27963	321573.1
19.2825	307648.4
19.28537	310285.3
19.28823	309315
19.29108	323016.7
19.29395	316451.8
19.29682	308071.5
19.29968	314825.2
19.30255	302790.7
19.30542	322891.5
19.30827	312813.9
19.31113	321491.2
19.314	326536.3
19.31687	318723.3
19.31973	319933.5
19.3226	309962.5
19.32547	324830.8
19.32832	317791.4
19.33118	332557.3
19.33405	318542
19.33692	331433.3
19.33978	332727.8
19.34265	334171.7
19.34552	324812.3
19.34837	334493.9
19.35123	326588.9
19.3541	325136.1
19.35697	332269.8
19.35983	322654.5
19.3627	323329.2
19.36557	331673.1
19.36842	326994.2
19.37128	320986.9
19.37415	317685.5
19.37702	317426.8
19.37988	329091
19.38275	323204
19.38562	321402.5
19.38847	322180.3
19.39133	320513.3
19.3942	338337.2
19.39707	328497.7
19.39993	312783.4
19.4028	324848.5
19.40567	326648.5
19.40852	330453.7
19.41138	318388
19.41425	313671.1
19.41712	314346.5
19.41998	333360.7
19.42285	309637.8
19.42572	307386
19.42857	311174.2
19.43143	313717
19.4343	324941.4
19.43717	323305.5
19.44003	320197.1
19.4429	319210.1
19.44575	308269.8
19.44862	317510.9
19.45148	325841.2
19.45435	314537
19.45722	313107.2
19.46008	307273.3
19.46295	310473.3
19.4658	322380.5
19.46867	314452.3
19.47153	318639.8
19.4744	311689.9
19.47727	305863.9
19.48013	315258.7
19.483	303609.4
19.48585	319490.3
19.48872	307136
19.49158	305750.2
19.49445	303212.8
19.49732	310153.1
19.50018	319540.2
19.50305	312185.2
19.5059	329499.4
19.50877	310658.3
19.51163	312496.1
19.5145	312945.9
19.51737	314744.7
19.52023	313212.4
19.5231	321706.6
19.52595	317329.3
19.52882	320111.5
19.53168	317137.5
19.53455	320299.7
19.53742	332419.2
19.54028	318100.4
19.54315	331396.6
19.546	312368.9
19.54887	325523.2
19.55173	322676.2
19.5546	315083.8
19.55747	320105.8
19.56033	324722.6
19.56318	303547.2
19.56605	316971.8
19.56892	318587.2
19.57178	322631.2
19.57465	320840.8
19.57752	311084.1
19.58038	317463.8
19.58323	307325.6
19.5861	317605.8
19.58897	309385.4
19.59183	302449.7
19.5947	332170.5
19.59757	319278
19.60043	320694.4
19.60328	312469.5
19.60615	330989.1
19.60902	324834.6
19.61188	321770.8
19.61475	310173.1
19.61762	329783.8
19.62048	333446.7
19.62333	317591
19.6262	326238
19.62907	313348.8
19.63193	314332.8
19.6348	303502.8
19.63767	320012.6
19.64052	321760.9
19.64338	319374.6
19.64625	298467.8
19.64912	322468.8
19.65198	305016.6
19.65485	315399
19.65772	316764.3
19.66057	324522.2
19.66343	314986.5
19.6663	311614.5
19.66917	342627.5
19.67203	304591.8
19.6749	314119.7
19.67777	310348.6
19.68062	311519.3
19.68348	311265.4
19.68635	313186.6
19.68922	322114.3
19.69208	305468.7
19.69495	313503.2
19.6978	325060.7
19.70067	315323.4
19.70353	311184
19.7064	318678.8
19.70927	313365.2
19.71213	307080.3
19.715	318090.3
19.71785	314915.3
19.72072	311275.9
19.72358	301877.2
19.72645	320737.3
19.72932	310709.9
19.73218	317501.3
19.73505	311295.7
19.7379	317606.8
19.74077	314379.5
19.74363	308806.6
19.7465	301708.2
19.74937	315321.3
19.75223	314321.8
19.7551	299952.4
19.75795	313938
19.76082	315605.7
19.76368	312887.6
19.76655	317136
19.76942	311815.8
19.77228	316343.5
19.77515	309931
19.778	318554
19.78087	322597.7
19.78373	312236.6
19.7866	324205.8
19.78947	330558.9
19.79233	321228
19.7952	324933.3
19.79805	310412.9
19.80092	334023.6
19.80378	311491.2
19.80665	326356.3
19.80952	312603.7
19.81238	327610.2
19.81525	320933.2
19.8181	323542.4
19.82097	319003.7
19.82383	310555.7
19.8267	311564.4
19.82957	335283.6
19.83243	322917.4
19.8353	315387.2
19.83815	312701.4
19.84102	327160.1
19.84388	305575.8
19.84675	317892.6
19.84962	321254.3
19.85248	312242.9
19.85535	316496.9
19.8582	309191
19.86107	306368.3
19.86393	330210.9
19.8668	322735.1
19.86967	321114.4
19.87253	321636
19.8754	317895.4
19.87825	328787
19.88112	324497.3
19.88398	320503.8
19.88685	314038.4
19.88972	309140.1
19.89258	361549.7
19.89545	312301.3
19.8983	309551.7
19.90117	314662.9
19.90403	321939
19.9069	328873.4
19.90977	315492.6
19.91263	338269.9
19.9155	308166.4
19.91835	308638.1
19.92122	303034.7
19.92408	317529.2
19.92695	330030.9
19.92982	307266.9
19.93268	312204.5
19.93555	329808.2
19.9384	317995.9
19.94127	318255.5
19.94413	318682.9
19.947	303478.7
19.94987	318979.5
19.95273	303917.3
19.95558	318220.7
19.95845	316961.6
19.96132	313719.9
19.96418	318635
19.96705	305018
19.96992	299205.3
19.97278	301355.3
19.97563	295168.8
19.9785	312333.8
19.98137	311608.8
19.98423	315969.5
19.9871	294763.9
19.98997	301956.1
19.99283	314156.5
19.99568	305470.8
19.99855	315747.6
20.00142	307973.5
20.00428	304618.9
20.00715	314392.5
20.01002	305537.1
20.01288	305761.3
20.01573	305192.7
20.0186	306137.7
20.02147	304284.6
20.02433	304619.8
20.0272	320028
20.03007	308894.1
20.03292	316960.4
20.03578	314325.3
20.03865	327083.7
20.04152	310067.2
20.04438	306618.1
20.04725	304467.3
20.05012	306689.8
20.05297	306840
20.05583	303198.4
20.0587	317947.9
20.06157	299171.1
20.06443	312464.8
20.0673	298952.3
20.07017	313538.9
20.07302	309711.1
20.07588	318071.8
20.07875	307759.8
20.08162	298972.8
20.08448	311415.7
20.08735	311451.2
20.0902	308854.3
20.09307	320613.8
20.09593	309126.3
20.0988	300633.8
20.10167	311554
20.10453	317344.1
20.1074	317122.2
20.11025	311521.9
20.11312	321130.4
20.11598	313047.4
20.11885	298882.8
20.12172	315506.1
20.12458	305939.6
20.12745	311542.1
20.1303	314214.8
20.13317	312694.6
20.13603	325081.4
20.1389	309567.4
20.14177	318180.2
20.14463	312063.4
20.14748	298340.5
20.15035	307107.6
20.15322	303576.5
20.15608	297412.4
20.15895	306494.4
20.16182	316096.6
20.16468	311650.3
20.16753	300325.7
20.1704	302509
20.17327	302979.6
20.17613	306171.9
20.179	301425.3
20.18187	300348.9
20.18472	289264.7
20.18758	307261.3
20.19045	299657.6
20.19332	304312.1
20.19618	313380.7
20.19905	307548.5
20.20192	298808.7
20.20477	301355.6
20.20763	302597.1
20.2105	302637.9
20.21337	295481.1
20.21623	294470.3
20.2191	300133.7
20.22197	316313.1
20.22482	317998.8
20.22768	316345.5
20.23055	295372.8
20.23342	304411.8
20.23628	316041
20.23915	300826.9
20.242	302285.4
20.24487	320440.9
20.24773	310623
20.2506	310889
20.25347	314573.3
20.25633	301606.4
20.2592	321134.9
20.26207	308865.2
20.26492	317661.4
20.26778	312846.9
20.27065	326017.4
20.27352	315664.5
20.27638	306668.5
20.27925	319630.2
20.2821	334449.3
20.28497	331131
20.28783	332376.8
20.2907	308175.2
20.29357	322301.4
20.29643	317256.9
20.2993	340753
20.30215	308470.4
20.30502	305682.6
20.30788	307097.1
20.31075	312883.2
20.31362	312575.4
20.31648	295643
20.31935	308450.9
20.3222	301076.4
20.32507	306705.7
20.32793	295735.1
20.3308	297169.3
20.33367	293601.3
20.33653	292788
20.3394	309124.8
20.34225	301573.1
20.34512	310278.9
20.34798	308508.6
20.35085	307169.7
20.35372	297446.5
20.35658	305105.7
20.35945	295189.1
20.3623	295088.6
20.36517	306148.5
20.36803	304376.1
20.3709	294649
20.37377	301558.5
20.37663	295144.9
20.3795	292799.8
20.38235	299073.8
20.38522	299278.6
20.38808	305134.9
20.39095	297251.5
20.39382	309083.2
20.39668	297124.9
20.39955	299296.2
20.4024	301276.5
20.40527	299221.8
20.40813	302678.2
20.411	304210.1
20.41387	318428.6
20.41673	306730.8
20.4196	310684.2
20.42245	316072.5
20.42532	305539.8
20.42818	300023.5
20.43105	303803.2
20.43392	303169.4
20.43678	305576.8
20.43963	309732.8
20.4425	322781.3
20.44537	315157.6
20.44823	305720.5
20.4511	313644.6
20.45397	308782
20.45683	301110.7
20.45968	308070.6
20.46255	298100.1
20.46542	309629.6
20.46828	310660.7
20.47115	303472.2
20.47402	316427.3
20.47688	303068.1
20.47973	307339.4
20.4826	303554.8
20.48547	306513.6
20.48833	304091.5
20.4912	305599.6
20.49407	306794.5
20.49692	302332.6
20.49978	306907.6
20.50265	312891.4
20.50552	303437.8
20.50838	313150.5
20.51125	311028.9
20.51412	300538.7
20.51697	305946.5
20.51983	302594.9
20.5227	305849.6
20.52557	299350.4
20.52843	293319.7
20.5313	299347.4
20.53417	302670.4
20.53702	301171.8
20.53988	291647.6
20.54275	302409.4
20.54562	300044.5
20.54848	296367.9
20.55135	301858.3
20.5542	303217.5
20.55707	309989.5
20.55993	296484.5
20.5628	293175.8
20.56567	294299.3
20.56853	290420.3
20.5714	297444.9
20.57425	300056.5
20.57712	310741.5
20.57998	316354
20.58285	304245.5
20.58572	296061.9
20.58858	291954.8
20.59145	301814.7
20.5943	307293.4
20.59717	307245.1
20.60003	299036.8
20.6029	311356.7
20.60577	295545.6
20.60863	297701
20.6115	308432.5
20.61435	310010.7
20.61722	298055.7
20.62008	308388.2
20.62295	305157.3
20.62582	304974.8
20.62868	318115.7
20.63153	300406.7
20.6344	307071
20.63727	303268.8
20.64013	309129.6
20.643	296188.8
20.64587	295452
20.64873	307371.8
20.65158	303095.3
20.65445	300182.6
20.65732	304971.3
20.66018	308944.7
20.66305	291556.5
20.66592	307257.8
20.66878	303030.1
20.67163	298573.5
20.6745	295418.2
20.67737	301525.6
20.68023	308712.5
20.6831	286956.5
20.68597	301015.8
20.68882	309313.4
20.69168	303106.3
20.69455	302470.2
20.69742	312544.3
20.70028	291929.8
20.70315	304413.2
20.70602	303679
20.70887	303015.3
20.71173	307404.9
20.7146	296361.1
20.71747	300464.4
20.72033	306599.3
20.7232	302405.3
20.72607	300463.9
20.72892	319004.1
20.73178	303437.9
20.73465	294412.7
20.73752	308084
20.74038	292722.1
20.74325	308372.6
20.7461	311990.7
20.74897	292316
20.75183	302325.4
20.7547	302472.1
20.75757	315515.9
20.76043	318589.2
20.7633	304347
20.76615	299530.9
20.76902	305049.5
20.77188	309692.7
20.77475	321583.5
20.77762	309987.3
20.78048	294209.8
20.78333	311599.9
20.7862	305915.2
20.78907	295885.2
20.79193	300231.6
20.7948	291725.8
20.79767	300181.4
20.80053	306976.8
20.80338	307272.7
20.80625	296556.9
20.80912	300783.1
20.81198	304941.8
20.81485	295868.7
20.81772	285679.6
20.82058	288466.8
20.82343	295079.2
20.8263	303710.4
20.82917	302200.9
20.83203	306914.5
20.8349	294469.3
20.83777	302730.8
20.84062	290002.6
20.84348	297589.8
20.84635	291725.3
20.84922	300136.3
20.85208	311983.2
20.85495	304464.8
20.85782	300799.6
20.86067	301955.1
20.86353	305564
20.8664	296694.9
20.86927	293450.8
20.87213	290656.7
20.875	294775.6
20.87785	299373.1
20.88072	304246.5
20.88358	303502.7
20.88645	296585.4
20.88932	291255.3
20.89218	308265.8
20.89505	297683.1
20.8979	294185.4
20.90077	296159.6
20.90363	302743.8
20.9065	314742.7
20.90937	295730.8
20.91223	310688.3
20.9151	291127.4
20.91795	301359.9
20.92082	306847.8
20.92368	299013.5
20.92655	310777.6
20.92942	291621.3
20.93228	304978.2
20.93513	307501.6
20.938	296816.8
20.94087	300807.7
20.94373	312809.3
20.9466	290807.8
20.94947	298347.4
20.95233	295522.1
20.95518	302665.2
20.95805	303319.9
20.96092	316205.3
20.96378	311529.2
20.96665	303526.4
20.96952	302224.3
20.97237	299426.1
20.97523	307206.1
20.9781	304270.5
20.98097	307306.1
20.98383	295284
20.9867	301805.7
20.98957	295744.2
20.99242	302432.9
20.99528	301133.9
20.99815	314024.2
21.00102	307308.1
21.00388	303149.1
21.00675	294090.4
21.0096	294112.7
21.01247	307025.5
21.01533	308269.2
21.0182	314206.7
21.02107	303969.3
21.02393	291525.1
21.0268	307457.1
21.02965	294857.3
21.03252	301066.2
21.03538	294531.8
21.03825	296072.9
21.04112	300235.1
21.04398	304613.9
21.04685	297258.2
21.0497	301319.7
21.05257	296942.8
21.05543	297433.9
21.0583	287789.1
21.06117	312259.6
21.06403	315319.6
21.0669	294281.9
21.06975	301385.6
21.07262	312944.5
21.07548	308417.3
21.07835	309865.9
21.08122	289517.2
21.08408	305964.8
21.08695	299119.9
21.0898	287110.6
21.09267	303373.5
21.09553	306651.5
21.0984	299760.8
21.10127	297519.9
21.10413	293887.4
21.10698	298849.8
21.10985	298844.8
21.11272	292970.1
21.11558	296977.6
21.11845	305986.9
21.12132	292190.7
21.12418	293999.4
21.12703	288454.7
21.1299	306027.5
21.13277	296143.9
21.13563	304018.8
21.1385	299517.4
21.14137	294252.2
21.14423	295042.8
21.14708	303769.5
21.14995	304478.4
21.15282	304507.5
21.15568	296349.2
21.15855	315894.3
21.16142	308704.7
21.16427	304499.6
21.16713	306295.5
21.17	309746.3
21.17287	299884.4
21.17573	301130.4
21.1786	298453.4
21.18147	303900.1
21.18432	311005.5
21.18718	299537.8
21.19005	316755.6
21.19292	310571.7
21.19578	319906.8
21.19865	304950.1
21.2015	316991.8
21.20437	306337.9
21.20723	302763.3
21.2101	293977.3
21.21297	314890.1
21.21583	309536.4
21.2187	300274.5
21.22155	315946.3
21.22442	309692.3
21.22728	307488.1
21.23015	314380.3
21.23302	300960.9
21.23588	307539.8
21.23875	309903.3
21.2416	299447
21.24447	307569.2
21.24733	316815.8
21.2502	310650.9
21.25307	322711.5
21.25593	318708.2
21.2588	321894.7
21.26165	328007.9
21.26452	321847.5
21.26738	322641.8
21.27025	318992.8
21.27312	323350
21.27598	320783
21.27885	322895.9
21.2817	317697.2
21.28457	310581.6
21.28743	326537.2
21.2903	320961.3
21.29317	330592.3
21.29603	325782.8
21.2989	352317.5
21.30175	325460
21.30462	319884.9
21.30748	321812
21.31035	328404.8
21.31322	320657.7
21.31608	333097.8
21.31895	322503.6
21.3218	328184.1
21.32467	310099.4
21.32753	323334.2
21.3304	316749.2
21.33327	300280.9
21.33613	309713.4
21.339	298301.2
21.34185	300872.2
21.34472	302445.1
21.34758	290425.3
21.35045	299287.7
21.35332	301746.9
21.35618	304746.5
21.35905	306939.2
21.3619	293898.8
21.36477	304903.2
21.36763	293543.8
21.3705	304735
21.37337	298021.9
21.37623	303231.3
21.37908	305268
21.38195	303442.8
21.38482	281579.5
21.38768	304709.1
21.39055	299027.7
21.39342	287659.6
21.39628	301128.8
21.39913	286914.4
21.402	298062.6
21.40487	298511
21.40773	295383.4
21.4106	299004.3
21.41347	284329.7
21.41633	284708.3
21.41918	297977
21.42205	298111.9
21.42492	293021.8
21.42778	304582.6
21.43065	295687.5
21.43352	306521.5
21.43638	288148.3
21.43923	302056
21.4421	293035.8
21.44497	295652.5
21.44783	300287.8
21.4507	299446.3
21.45357	306420
21.45642	299179.6
21.45928	301514.1
21.46215	291825.8
21.46502	297440.2
21.46788	314370.4
21.47075	300244.8
21.47362	303996.9
21.47647	301953.3
21.47933	302596.8
21.4822	281746.4
21.48507	286582.8
21.48793	299137.5
21.4908	300658.2
21.49365	289394.8
21.49652	290667.9
21.49938	301089.4
21.50225	288193.5
21.50512	294000.6
21.50798	297313.6
21.51085	301107.3
21.5137	295976.2
21.51657	308274
21.51943	296432.2
21.5223	304446.7
21.52517	295841.3
21.52803	310157.3
21.53088	294873.9
21.53375	290137.3
21.53662	300706.4
21.53948	291964.8
21.54235	301153.3
21.54522	302655.8
21.54808	303379.3
21.55093	312362.8
21.5538	307224.6
21.55667	303986.7
21.55953	291967.9
21.5624	316572.9
21.56527	306403.5
21.56813	309821
21.57098	311085.7
21.57385	308538.9
21.57672	309194.9
21.57958	305737.9
21.58245	316214.4
21.58532	304062.6
21.58817	306966.2
21.59103	307243.9
21.5939	301132.4
21.59677	320744.9
21.59963	325667.7
21.6025	305359.7
21.60537	315323.5
21.60822	309449.9
21.61108	309936.7
21.61395	311242.3
21.61682	316129.5
21.61968	315643.2
21.62255	315598.2
21.6254	325323.8
21.62827	310914.9
21.63113	317255.7
21.634	314395.6
21.63687	335258.2
21.63973	318339.7
21.6426	313813.3
21.64545	317502.3
21.64832	313502.8
21.65118	324958.7
21.65405	315611.2
21.65692	315363.9
21.65978	313740.7
21.66265	318347.1
21.6655	331600.7
21.66837	327734
21.67123	317111.9
21.6741	319005.9
21.67697	326955.5
21.67983	313432.7
21.68268	335674.2
21.68555	313658
21.68842	325874.1
21.69128	330474.1
21.69415	330443.9
21.69702	321663.8
21.69988	322964.3
21.70273	317748.9
21.7056	316909.3
21.70847	314937.9
21.71133	312938.8
21.7142	326164.4
21.71707	323346.4
21.71993	329856.1
21.72278	310962.2
21.72565	309250.4
21.72852	296086.9
21.73138	306085.8
21.73425	311154.5
21.73712	302402.6
21.73998	312833.6
21.74283	304360.2
21.7457	324250.7
21.74857	330693.2
21.75143	304269.7
21.7543	312855
21.75717	310001.3
21.76002	302027.3
21.76288	306066.2
21.76575	319951.5
21.76862	308485.8
21.77148	316631.3
21.77435	322515.2
21.77722	304721
21.78007	307695.3
21.78293	295920.2
21.7858	317365.7
21.78867	301140.1
21.79153	304247.3
21.7944	321814.4
21.79727	314555.3
21.80012	309335.7
21.80298	319070.2
21.80585	312846.3
21.80872	309323.5
21.81158	313074.7
21.81445	318509.6
21.81732	321674.9
21.82017	308828.3
21.82303	306308.1
21.8259	319632.3
21.82877	314882.8
21.83163	319468.6
21.8345	305058.7
21.83735	296869.2
21.84022	301671.8
21.84308	311698.4
21.84595	308143.5
21.84882	315001.3
21.85168	309801.6
21.85455	298346.9
21.8574	304360.4
21.86027	309684.8
21.86313	301333.2
21.866	317028.1
21.86887	303729.9
21.87173	312140.6
21.8746	300119.3
21.87745	296367.6
21.88032	318351.7
21.88318	301850.4
21.88605	297479.7
21.88892	297581.2
21.89178	303997.4
21.89463	306929.6
21.8975	301334.1
21.90037	296556.8
21.90323	304902.9
21.9061	316687.9
21.90897	304040.9
21.91183	298475.9
21.91468	301099
21.91755	300200.4
21.92042	302119.7
21.92328	303186.8
21.92615	299511.8
21.92902	304470.8
21.93187	299874.8
21.93473	302197.3
21.9376	294992.9
21.94047	287252.9
21.94333	294447
21.9462	298503.8
21.94907	307150.2
21.95192	292432
21.95478	301897.9
21.95765	297032.4
21.96052	302567
21.96338	307879.3
21.96625	300407
21.9691	288642
21.97197	314028.5
21.97483	304752.1
21.9777	298751.6
21.98057	305378.5
21.98343	300645.6
21.9863	297901.7
21.98915	307187.9
21.99202	310499.8
21.99488	305768.1
21.99775	303049.7
22.00062	308958.3
22.00348	302029.3
22.00633	306615.1
22.0092	297373.3
22.01207	300456.7
22.01493	302948.3
22.0178	301174.8
22.02067	314372.4
22.02353	292376
22.02638	299720.2
22.02925	291801.1
22.03212	306187.6
22.03498	302892.7
22.03785	296134.5
22.04072	300059.7
22.04358	309724.6
22.04643	291702.7
22.0493	294569.1
22.05217	285380.1
22.05503	303166.3
22.0579	289161.5
22.06077	304671.3
22.06363	299877.8
22.06648	288934.1
22.06935	299780.6
22.07222	294663.8
22.07508	300434.1
22.07795	295056.5
22.08082	299705.5
22.08367	279365.2
22.08653	291872.6
22.0894	296033.9
22.09227	292008.6
22.09513	301643.7
22.098	296295
22.10087	305562.6
22.10372	298720
22.10658	288552
22.10945	295105.7
22.11232	299179.6
22.11518	294996
22.11805	307570
22.1209	282881.8
22.12377	295607.3
22.12663	291895.4
22.1295	297562
22.13237	301097.5
22.13523	290981.3
22.1381	297336.4
22.14095	299187.6
22.14382	299664.4
22.14668	295622.5
22.14955	307528.8
22.15242	307566.5
22.15528	297741.3
22.15813	312230.9
22.161	317117.5
22.16387	324318.1
22.16673	324567.3
22.1696	319542.6
22.17247	324644.1
22.17533	323580.2
22.17818	311345
22.18105	313177.7
22.18392	328197.1
22.18678	324052.8
22.18965	323801.5
22.19252	319688.8
22.19537	325694.5
22.19823	344820.9
22.2011	325298.4
22.20397	317448.9
22.20683	303876
22.2097	318130.4
22.21257	322791.7
22.21542	314491.3
22.21828	308960.8
22.22115	334468.6
22.22402	317956.1
22.22688	306836.5
22.22975	319500.9
22.23262	306139
22.23547	317075.8
22.23833	301276.9
22.2412	295040
22.24407	311465.4
22.24693	300963.9
22.2498	295079.5
22.25265	297254.6
22.25552	306012.7
22.25838	302348
22.26125	300716.3
22.26412	298916.4
22.26698	296854.8
22.26985	305319.4
22.2727	308435.3
22.27557	308272.1
22.27843	296755.5
22.2813	297587.5
22.28417	297709.4
22.28703	295131.3
22.2899	286403.6
22.29275	298058.8
22.29562	303082.7
22.29848	299934.6
22.30135	295883.8
22.30422	283573.5
22.30708	304616.5
22.30993	287873.1
22.3128	292393.4
22.31567	299304
22.31853	295765.1
22.3214	289228.3
22.32427	300957.5
22.32713	291138.7
22.32998	299575.7
22.33285	299155.9
22.33572	306544.4
22.33858	296111.5
22.34145	299231.4
22.34432	282037.3
22.34717	294238
22.35003	290084.7
22.3529	298489.3
22.35577	311080.7
22.35863	304330.3
22.3615	292977.6
22.36437	293645.3
22.36722	282465
22.37008	305634
22.37295	294038.9
22.37582	297389.8
22.37868	296116.1
22.38155	311309
22.3844	300928.4
22.38727	294710.4
22.39013	302515.9
22.393	296730.4
22.39587	304810.1
22.39873	293444.8
22.4016	306341.3
22.40445	308093.3
22.40732	305125.3
22.41018	304365.5
22.41305	307711.8
22.41592	314725
22.41878	285993.2
22.42163	298421.7
22.4245	302383.7
22.42737	303550.2
22.43023	304502.9
22.4331	310571.5
22.43597	302981.6
22.43883	322858.3
22.44168	286209
22.44455	313560.5
22.44742	309170.4
22.45028	308762.3
22.45315	297716.1
22.45602	294523.9
22.45887	297914.8
22.46173	301301.4
22.4646	299303.7
22.46747	308554
22.47033	312210.6
22.4732	305359.8
22.47607	306032.3
22.47892	307718.4
22.48178	301929.8
22.48465	304962.3
22.48752	310967
22.49038	305255.1
22.49325	313482.2
22.4961	312330.1
22.49897	316148.5
22.50183	303915.2
22.5047	307663.8
22.50757	299197.6
22.51043	324212.9
22.5133	319521.1
22.51615	320685.3
22.51902	309166.7
22.52188	308600.9
22.52475	302628.1
22.52762	309310.6
22.53048	311883.8
22.53335	304418.8
22.5362	311822.8
22.53907	304054.9
22.54193	322134.2
22.5448	315368.6
22.54767	305350.4
22.55053	294155.2
22.55338	292108.4
22.55625	305309.9
22.55912	309275.8
22.56198	294752.5
22.56485	313729.8
22.56772	315129.1
22.57058	301485.3
22.57343	303639.7
22.5763	302788.1
22.57917	301780.7
22.58203	290168.1
22.5849	304941.4
22.58777	300717.8
22.59062	291989.4
22.59348	309379.1
22.59635	291311.3
22.59922	281556.4
22.60208	294472.2
22.60495	304423.3
22.60782	290705.3
22.61067	292467.9
22.61353	290258.2
22.6164	286711.3
22.61927	288425.4
22.62213	280421.7
22.625	295208.4
22.62785	285058.7
22.63072	304276.3
22.63358	294391.2
22.63645	293234.8
22.63932	293787.7
22.64218	286687.8
22.64505	285722.3
22.6479	311832.9
22.65077	293615.6
22.65363	302596.9
22.6565	299918.9
22.65937	311603.4
22.66223	297304.6
22.66508	314099.6
22.66795	308066.3
22.67082	300425.1
22.67368	300724.3
22.67655	311837.1
22.67942	309973.3
22.68228	304595.7
22.68513	313164.9
22.688	312394.8
22.69087	300341.8
22.69373	316534.8
22.6966	303875.1
22.69947	313487
22.70233	329159.6
22.70518	330464
22.70805	319773
22.71092	330419.7
22.71378	326607.1
22.71665	331221.7
22.71952	332096.6
22.72237	356149.7
22.72523	325201.4
22.7281	330549.2
22.73097	337296.6
22.73383	338644.7
22.7367	329669.8
22.73957	321583.3
22.74242	319342.9
22.74528	323234.8
22.74815	320317.8
22.75102	319423.2
22.75388	321123.8
22.75675	319107.8
22.7596	310433
22.76247	296373.9
22.76533	305320.5
22.7682	310735.3
22.77107	304135.8
22.77393	302103.3
22.7768	302076.1
22.77965	311727.4
22.78252	296276.8
22.78538	306415.5
22.78825	289025.4
22.79112	304106.1
22.79398	304635.4
22.79683	312755.5
22.7997	295243.8
22.80257	291432.7
22.80543	292843.6
22.8083	292108.8
22.81117	294731.3
22.81403	299493.1
22.81688	300449.3
22.81975	290225.8
22.82262	285128.2
22.82548	291248
22.82835	299545.1
22.83122	302535.2
22.83408	301135.8
22.83693	299987.9
22.8398	303030.3
22.84267	300022.2
22.84553	300992
22.8484	299529
22.85127	299202.9
22.85412	285440.8
22.85698	284295.5
22.85985	287691.1
22.86272	286069.3
22.86558	299205.2
22.86845	288418.8
22.87132	297863.3
22.87417	293340.1
22.87703	304517.4
22.8799	305403.3
22.88277	294426.7
22.88563	287912.9
22.8885	295905.6
22.89137	282802.4
22.89422	288814.9
22.89708	282738.1
22.89995	297340.1
22.90282	291689.1
22.90568	289524.9
22.90855	313685.1
22.9114	294045.3
22.91427	301106.7
22.91713	302240.7
22.92	289808.2
22.92287	283680
22.92573	304168.3
22.9286	299801.8
22.93145	298289.8
22.93432	291171.8
22.93718	295020.2
22.94005	297634.3
22.94292	289503.7
22.94578	300140.8
22.94863	294313.8
22.9515	304380.8
22.95437	289383.1
22.95723	302501.2
22.9601	298053.7
22.96297	299446.4
22.96583	300531.5
22.96868	317498.3
22.97155	293356
22.97442	281463.5
22.97728	294025.8
22.98015	287251.4
22.98302	295862.6
22.98587	298671.1
22.98873	293726.5
22.9916	302061.9
22.99447	306012.5
22.99733	306689.3
23.0002	311662.9
23.00307	296361.9
23.00592	287863.4
23.00878	317623.1
23.01165	311503.1
23.01452	290337.1
23.01738	301214.8
23.02025	287704.8
23.02312	308266.8
23.02597	295588.8
23.02883	300181.4
23.0317	281857
23.03457	299113.8
23.03743	296467.5
23.0403	293180.7
23.04315	297564
23.04602	295919
23.04888	288670.5
23.05175	301258.1
23.05462	292587.9
23.05748	292122.4
23.06035	296077.7
23.0632	306682.6
23.06607	307554.8
23.06893	313573.5
23.0718	294752.2
23.07467	291443.1
23.07753	307601.5
23.08038	305346.5
23.08325	297001
23.08612	301674.5
23.08898	308603.8
23.09185	292027.8
23.09472	293441.3
23.09758	306489.2
23.10043	298487
23.1033	307984.7
23.10617	299709.8
23.10903	299148.5
23.1119	299704.1
23.11477	295908.3
23.11762	306385.6
23.12048	285188.3
23.12335	301726.4
23.12622	295626.9
23.12908	297863.5
23.13195	293912.1
23.13482	293427.8
23.13767	305613.1
23.14053	306007.5
23.1434	299443.1
23.14627	311413.3
23.14913	299795.2
23.152	304296.9
23.15487	310458
23.15772	307266
23.16058	322671.2
23.16345	331761.5
23.16632	329165.3
23.16918	312570
23.17205	323408.6
23.17492	329224.4
23.17777	341460.4
23.18063	341861.9
23.1835	343747.7
23.18637	344761.1
23.18923	345549.9
23.1921	345882.5
23.19497	362144.1
23.19782	358019.5
23.20068	350353
23.20355	361978.8
23.20642	371502.8
23.20928	355161.8
23.21215	371463.9
23.21502	353579
23.21787	367223.3
23.22073	373174.9
23.2236	368278.3
23.22647	365005.1
23.22933	365712
23.2322	348228.4
23.23507	359740.9
23.23792	352943.5
23.24078	337437.5
23.24365	349866.6
23.24652	336833.4
23.24938	337949.8
23.25225	349242.8
23.25512	336003.3
23.25797	330701.8
23.26083	330960.4
23.2637	323117.1
23.26657	330218.2
23.26943	327301.8
23.2723	325974.3
23.27517	309888.1
23.27802	315284.9
23.28088	308483.6
23.28375	325105.6
23.28662	315211.7
23.28948	312718.6
23.29235	311580.8
23.29522	313467.7
23.29807	316532.3
23.30093	310314.2
23.3038	302606.6
23.30667	308811.4
23.30953	308350.7
23.3124	313777.9
23.31525	310588.6
23.31812	303431.6
23.32098	303416.2
23.32385	310731.2
23.32672	304095.8
23.32958	307898.9
23.33245	304117.3
23.3353	313339.7
23.33817	309972.5
23.34103	315203.9
23.3439	305891.3
23.34677	308303.5
23.34963	301010.1
23.3525	301909
23.35535	299433.5
23.35822	316116.7
23.36108	301581.3
23.36395	300734.3
23.36682	302006.9
23.36968	310834.8
23.37255	313143.6
23.3754	308881
23.37827	300321.3
23.38113	292599
23.384	289641.2
23.38687	300691.8
23.38973	301682.7
23.3926	305265.2
23.39545	295061.9
23.39832	302396.5
23.40118	293428.8
23.40405	326892.9
23.40692	296594.1
23.40978	310351.9
23.41263	305139.9
23.4155	305250.7
23.41837	299360.6
23.42123	311900.3
23.4241	315294.5
23.42697	299291.7
23.42983	297792.8
23.43268	295973.5
23.43555	299843.2
23.43842	296537.7
23.44128	295440.3
23.44415	302790.3
23.44702	299644.7
23.44988	305212
23.45273	301399.1
23.4556	295567.7
23.45847	307701.8
23.46133	295575.2
23.4642	299232.3
23.46707	292574.3
23.46992	300853.7
23.47278	296429
23.47565	301944.5
23.47852	287744.9
23.48138	298266.8
23.48425	304616
23.48712	298798.5
23.48997	304117.9
23.49283	301971.9
23.4957	294348
23.49857	300876.6
23.50143	288965.8
23.5043	302170.8
23.50717	291256.2
23.51002	304237.9
23.51288	293259.1
23.51575	288213.4
23.51862	302208.2
23.52148	303236.7
23.52435	300770.3
23.5272	299343.8
23.53007	289097.7
23.53293	298039.2
23.5358	304895
23.53867	304492.7
23.54153	300868.3
23.5444	313421.3
23.54725	313599.7
23.55012	302844.9
23.55298	304505.3
23.55585	303818.8
23.55872	308448.6
23.56158	309194.9
23.56443	315128.5
23.5673	317866.5
23.57017	330578.3
23.57303	327038.5
23.5759	322296.4
23.57877	334663.8
23.58163	339043
23.58448	333763.8
23.58735	344382.6
23.59022	350136.4
23.59308	353788.9
23.59595	338893.8
23.59882	362579.4
23.60168	360269.4
23.60453	355424.9
23.6074	369904.4
23.61027	371212.7
23.61313	373959.4
23.616	372701.8
23.61887	365943.2
23.62173	357757.3
23.62458	365305.3
23.62745	358437.8
23.63032	357438.2
23.63318	343858.3
23.63605	344313.9
23.63892	337988.7
23.64178	341856.5
23.64463	348834.6
23.6475	332259.6
23.65037	328982.3
23.65323	331399.3
23.6561	337892.8
23.65897	334609
23.66183	320889.4
23.66468	330988.8
23.66755	311236.7
23.67042	315607.6
23.67328	306507.9
23.67615	318879.4
23.67902	305026.2
23.68188	318456.6
23.68473	316147.7
23.6876	306027.2
23.69047	298101.3
23.69333	309388.6
23.6962	303275.8
23.69907	315512.4
23.70192	307540.8
23.70478	306913.9
23.70765	298530.5
23.71052	290379.4
23.71338	301954.2
23.71625	302591.1
23.71912	299422.9
23.72197	310890.6
23.72483	296204.4
23.7277	307374.2
23.73057	292990.4
23.73343	288104.4
23.7363	297522.1
23.73917	297149.8
23.74202	298672.6
23.74488	296281.1
23.74775	301236.5
23.75062	306170.1
23.75348	305957
23.75635	304082
23.75922	300642
23.76207	292541
23.76493	297495.1
23.7678	290036.7
23.77067	297620.6
23.77353	296301.8
23.7764	295291.1
23.77925	285597.2
23.78212	294506.8
23.78498	288489.9
23.78785	290763.3
23.79072	298500.5
23.79358	297056.8
23.79645	301198.2
23.7993	297809.3
23.80217	294198.9
23.80503	300513.6
23.8079	303216
23.81077	309316.1
23.81363	290005
23.8165	304300.2
23.81935	297961.1
23.82222	287161.4
23.82508	295670.9
23.82795	298570.4
23.83082	296840.1
23.83368	295132.5
23.83653	295915.3
23.8394	316137.4
23.84227	300490
23.84513	296297.8
23.848	296174.8
23.85087	300843.5
23.85373	288032.8
23.85658	294442.2
23.85945	295788
23.86232	297569.6
23.86518	296645.5
23.86805	297381.3
23.87092	294881.9
23.87377	291302.5
23.87663	300779.7
23.8795	297056.6
23.88237	300731.1
23.88523	305412.8
23.8881	293795.1
23.89097	298849.3
23.89382	287657.7
23.89668	304085.5
23.89955	293249.2
23.90242	300428
23.90528	292458.4
23.90815	293703.1
23.911	304792.2
23.91387	305313.1
23.91673	290161.7
23.9196	298057.9
23.92247	307368.9
23.92533	307405.7
23.9282	294345.8
23.93105	309433.7
23.93392	293327.5
23.93678	297340.3
23.93965	307388.8
23.94252	308414.6
23.94538	310497.5
23.94825	300528.8
23.9511	303037.7
23.95397	307787.5
23.95683	318232.7
23.9597	305844.7
23.96257	289809.6
23.96543	294925.6
23.9683	302401.5
23.97115	295482.7
23.97402	300383.2
23.97688	306752.5
23.97975	308015.7
23.98262	289471.6
23.98548	299457.3
23.98833	300226.4
23.9912	312916.3
23.99407	310477.5
23.99693	298794.2
23.9998	314401.3
24.00267	289841.4
24.00553	307337.7
24.00838	304647.5
24.01125	294305.8
24.01412	293406.1
24.01698	321466.4
24.01985	293500.5
24.02272	302859.2
24.02557	309614.9
24.02843	306943.2
24.0313	298515.6
24.03417	309081.8
24.03703	301498.8
24.0399	299381
24.04277	300523.3
24.04562	295858.7
24.04848	294498.8
24.05135	298615.2
24.05422	291266
24.05708	299159.2
24.05995	306425.8
24.06282	305114.5
24.06567	300021.3
24.06853	298343.3
24.0714	309945.5
24.07427	309953.7
24.07713	299388.8
24.08	290238.5
24.08285	286612.5
24.08572	288544.9
24.08858	295339.1
24.09145	303317.2
24.09432	297349.1
24.09718	297725.3
24.10005	295034.5
24.1029	300687.5
24.10577	302828.5
24.10863	299108.3
24.1115	298196.5
24.11437	295873.6
24.11723	293766.2
24.1201	292066
24.12295	284712.6
24.12582	286799.8
24.12868	295813.1
24.13155	304554.5
24.13442	294401
24.13728	303797.3
24.14013	295109.7
24.143	295731.8
24.14587	290281.9
24.14873	297575.6
24.1516	295925.2
24.15447	299644.9
24.15733	302163.3
24.16018	310333.4
24.16305	304557.2
24.16592	293645.3
24.16878	296704.7
24.17165	291425.1
24.17452	285116.1
24.17738	300917.9
24.18023	299689.8
24.1831	298263
24.18597	294690.8
24.18883	291833.8
24.1917	307252.4
24.19457	293911.7
24.19742	296810.1
24.20028	299149.5
24.20315	286029.8
24.20602	294767.7
24.20888	310681.7
24.21175	288463.4
24.21462	298438.2
24.21747	287998.1
24.22033	297979.1
24.2232	290757.5
24.22607	297838.9
24.22893	296387.5
24.2318	284852.3
24.23467	289191.4
24.23752	293202.8
24.24038	299046
24.24325	301047.7
24.24612	291002.1
24.24898	290754.4
24.25185	296930.6
24.2547	294593.9
24.25757	299528.2
24.26043	302043
24.2633	305550.3
24.26617	304736.3
24.26903	292764.1
24.2719	294331.3
24.27475	305394.6
24.27762	301867.3
24.28048	296565.3
24.28335	275096
24.28622	292685.4
24.28908	292396.8
24.29195	312539.6
24.2948	302762.4
24.29767	294044.4
24.30053	301079.7
24.3034	311878.6
24.30627	317891.3
24.30913	307638.2
24.31198	304293.4
24.31485	302261.6
24.31772	304132.8
24.32058	301612
24.32345	309078.3
24.32632	303189.3
24.32918	295568
24.33203	303855.5
24.3349	296249.6
24.33777	308459
24.34063	283334.2
24.3435	279824.3
24.34637	288594.2
24.34923	307860
24.35208	303263.8
24.35495	303738.8
24.35782	293240.8
24.36068	287927
24.36355	293384.6
24.36642	298503.8
24.36927	294018.2
24.37213	285612.2
24.375	295088.3
24.37787	310222.8
24.38073	292170.4
24.3836	294208.8
24.38647	290508.8
24.38932	293454.7
24.39218	285411.9
24.39505	292653.4
24.39792	291019.1
24.40078	297693.1
24.40365	294377.5
24.40652	291682
24.40937	283737.1
24.41223	292681.6
24.4151	289336.4
24.41797	299274.5
24.42083	302696.8
24.4237	299251
24.42655	299341.8
24.42942	289892.3
24.43228	283470.5
24.43515	301247.1
24.43802	294891.1
24.44088	305794.7
24.44375	291549.2
24.4466	291797.9
24.44947	285679.7
24.45233	287081.2
24.4552	286850.6
24.45807	294714.8
24.46093	288128.6
24.4638	290543.8
24.46665	293844
24.46952	291440.6
24.47238	290205.2
24.47525	285734.8
24.47812	304164.3
24.48098	296491
24.48383	283169
24.4867	288797.3
24.48957	295424.7
24.49243	290700.7
24.4953	300490
24.49817	296083.8
24.50103	291503.4
24.50388	296506.5
24.50675	294055.3
24.50962	292125.5
24.51248	293978.4
24.51535	285857.1
24.51822	277630.3
24.52107	301362.1
24.52393	276653.1
24.5268	292958.6
24.52967	314631.2
24.53253	298490.4
24.5354	301459.8
24.53827	303262.3
24.54112	283609
24.54398	293422.2
24.54685	285466.1
24.54972	281706
24.55258	289000.1
24.55545	294458.3
24.55832	300006
24.56117	287860.4
24.56403	296933.3
24.5669	289979.3
24.56977	296608.5
24.57263	279603.9
24.5755	284388.8
24.57835	280614.1
24.58122	298585.5
24.58408	283698.2
24.58695	295596.8
24.58982	289706.7
24.59268	287562.6
24.59555	292555.3
24.5984	297873.3
24.60127	287879.8
24.60413	298324.2
24.607	282741.4
24.60987	292420.6
24.61273	295359.6
24.61558	293761.9
24.61845	295780.8
24.62132	298345.5
24.62418	294586.3
24.62705	302316.6
24.62992	301286.1
24.63278	296301.6
24.63563	295531.9
24.6385	299473.6
24.64137	295705.4
24.64423	297812.4
24.6471	294910.9
24.64997	290320
24.65283	296905.2
24.65568	298887.7
24.65855	289993.6
24.66142	285069.6
24.66428	295302.9
24.66715	299669.8
24.67002	295871.7
24.67287	288993.3
24.67573	283662
24.6786	283456.8
24.68147	287192.7
24.68433	283548.3
24.6872	291006.6
24.69007	283991.6
24.69292	303217
24.69578	292945.8
24.69865	297324.8
24.70152	284415.7
24.70438	297503
24.70725	286191.1
24.7101	293140.8
24.71297	300774.4
24.71583	297911.3
24.7187	301719.1
24.72157	283649.3
24.72443	302655.6
24.7273	288632.5
24.73015	281692.8
24.73302	296467.8
24.73588	294407.5
24.73875	292201.9
24.74162	289829.1
24.74448	294737.6
24.74735	287158.2
24.7502	295938.8
24.75307	288479.5
24.75593	292937.2
24.7588	302432.8
24.76167	292279.5
24.76453	295837
24.76738	295909.7
24.77025	296739.3
24.77312	292267.9
24.77598	292686.5
24.77885	287209.3
24.78172	300703.3
24.78458	306444.4
24.78743	293092.9
24.7903	306059.2
24.79317	305813.7
24.79603	295244.4
24.7989	298293.3
24.80177	285342
24.80462	277453.9
24.80748	282708.7
24.81035	294474.3
24.81322	285008.1
24.81608	284251.1
24.81895	295468.2
24.82182	298101.5
24.82467	303218.7
24.82753	297538.4
24.8304	288759.5
24.83327	286514.8
24.83613	284085.4
24.839	294932.8
24.84185	294786.9
24.84472	299147.4
24.84758	300253.4
24.85045	299011.2
24.85332	298857.5
24.85618	296567.2
24.85905	290375.8
24.8619	300120.8
24.86477	283895.3
24.86763	288907.8
24.8705	286472.9
24.87337	288655.3
24.87623	303153.9
24.87908	291786.3
24.88195	291894.4
24.88482	282588.7
24.88768	301715.2
24.89055	299200.8
24.89342	288427
24.89628	304703.7
24.89913	288344.5
24.902	291566
24.90487	301410.2
24.90773	293500.9
24.9106	287417.8
24.91347	281679.7
24.91632	280418.6
24.91918	293964.1
24.92205	292143.5
24.92492	284884.5
24.92778	305325
24.93065	297212.3
24.93352	293627.3
24.93637	291331.9
24.93923	282652.3
24.9421	293774
24.94497	291498.5
24.94783	281987.3
24.9507	293956.2
24.95355	287230.9
24.95642	293049.6
24.95928	289673.1
24.96215	289556.8
24.96502	286003.7
24.96788	288865.5
24.97075	288535.5
24.9736	289788.3
24.97647	282651.3
24.97933	280288.6
24.9822	284134.1
24.98507	294217.2
24.98793	289097.2
24.9908	294459.9
24.99365	301405.8
24.99652	282725.7
24.99938	282197
25.00225	284669.2
25.00512	299019
25.00798	301935.8
25.01083	289785.9
25.0137	289637.2
25.01657	279832.4
25.01943	286519.1
25.0223	296605.2
25.02517	288797.3
25.02802	302751.5
25.03088	292344.7
25.03375	306814.6
25.03662	295254.5
25.03948	291910.7
25.04235	284225.2
25.04522	283625.8
25.04807	295323.3
25.05093	296673.7
25.0538	295120.2
25.05667	282027.4
25.05953	291594.1
25.0624	282177.2
25.06525	290464.8
25.06812	288432.6
25.07098	288023.2
25.07385	292951.3
25.07672	299280.9
25.07958	289162.3
25.08245	289205
25.0853	299378.3
25.08817	293565.5
25.09103	290347.4
25.0939	290554.3
25.09677	280950.5
25.09963	277239.9
25.10248	288152.9
25.10535	292217.6
25.10822	296619.8
25.11108	284255.7
25.11395	290905
25.11682	287544.3
25.11968	280617.8
25.12253	294815.5
25.1254	303081
25.12827	283147.4
25.13113	280561.5
25.134	278234.7
25.13687	300696
25.13973	295427
25.14258	293018.7
25.14545	294524.5
25.14832	284210
25.15118	284794.1
25.15405	285513.7
25.15692	297472.9
25.15977	292510.1
25.16263	289715.1
25.1655	284321.5
25.16837	295872.9
25.17123	297050.2
25.1741	294918.3
25.17697	300138.7
25.17982	291216.5
25.18268	302840.8
25.18555	284824.1
25.18842	298709.8
25.19128	291188.2
25.19415	293755.1
25.197	290091.5
25.19987	284839.5
25.20273	291132.4
25.2056	281680.7
25.20847	285537.2
25.21133	282262.5
25.2142	291198.8
25.21705	284694.6
25.21992	289941.5
25.22278	284833.5
25.22565	289308.4
25.22852	288427.1
25.23138	286975.7
25.23423	294889.8
25.2371	288796.4
25.23997	296598.6
25.24283	291102.1
25.2457	291485.8
25.24857	301044.3
25.25143	291681
25.25428	293527.6
25.25715	297823
25.26002	303933.8
25.26288	299048.2
25.26575	293715
25.26862	296240.7
25.27147	296206.1
25.27433	309740.5
25.2772	281502.2
25.28007	298541.1
25.28293	299957.2
25.2858	303219.9
25.28867	298260.8
25.29152	302636.1
25.29438	304579.1
25.29725	303963.8
25.30012	295584
25.30298	312065.5
25.30585	296443.6
25.3087	295389.8
25.31157	303713.6
25.31443	302582.1
25.3173	314847.5
25.32017	301055.3
25.32303	305236.9
25.3259	317686
25.32875	303258.2
25.33162	292517.5
25.33448	292416.1
25.33735	308505.2
25.34022	295638.8
25.34308	306198.4
25.34595	297579.3
25.3488	298094.4
25.35167	302367.1
25.35453	295128.9
25.3574	300508.6
25.36027	292964.3
25.36313	305796.1
25.36598	305200.8
25.36885	291995.6
25.37172	293518.7
25.37458	303989.9
25.37745	307657.4
25.38032	293779.3
25.38318	292599.8
25.38603	299898
25.3889	293685.9
25.39177	294475.7
25.39463	300472.1
25.3975	297009.4
25.40037	285438.1
25.40322	306576.2
25.40608	288101.8
25.40895	295813
25.41182	302880
25.41468	301710.5
25.41755	289630
25.42042	295514.6
25.42327	283700.7
25.42613	288296.6
25.429	287826.9
25.43187	308835.4
25.43473	286434.6
25.4376	293240.9
25.44045	292929.4
25.44332	295416.8
25.44618	296236.5
25.44905	298885.1
25.45192	300096.8
25.45478	288646.2
25.45765	291196.6
25.4605	290392
25.46337	293949.8
25.46623	297419.9
25.4691	299385.1
25.47197	292776.4
25.47483	292914.2
25.47768	302916.1
25.48055	280209.4
25.48342	303587.3
25.48628	297351.2
25.48915	305558.2
25.49202	288938.4
25.49488	296225.8
25.49773	294916
25.5006	298656.1
25.50347	292655.1
25.50633	305710.1
25.5092	295928.8
25.51207	302569.8
25.51492	304003.5
25.51778	302398
25.52065	298875.6
25.52352	300043.2
25.52638	300821.2
25.52925	295977.2
25.53212	291804.6
25.53497	304695.1
25.53783	306314.3
25.5407	301921.3
25.54357	299274.4
25.54643	303096.2
25.5493	304175.7
25.55217	313683.5
25.55502	306568.1
25.55788	310147.9
25.56075	303151.7
25.56362	306503.7
25.56648	310062.5
25.56935	305391.9
25.5722	297851.2
25.57507	306661.5
25.57793	309721.6
25.5808	311942.3
25.58367	298806.3
25.58653	302990.6
25.5894	311160.8
25.59225	309477.9
25.59512	293707.3
25.59798	303245.5
25.60085	306457.8
25.60372	299377
25.60658	321288.8
25.60943	302188.8
25.6123	312206
25.61517	314049.1
25.61803	312416.8
25.6209	306829.8
25.62377	296870.8
25.62663	311481.8
25.62948	305638.8
25.63235	294119.4
25.63522	301067.2
25.63808	301095.7
25.64095	310484.3
25.64382	311996.3
25.64667	314607.8
25.64953	300719.1
25.6524	315824.8
25.65527	310741.6
25.65813	308069
25.661	293545.6
25.66387	289631.9
25.66672	304092
25.66958	306763.2
25.67245	310272.3
25.67532	300813.3
25.67818	307207.1
25.68105	293662.2
25.68392	297293.8
25.68677	303185.1
25.68963	294061.5
25.6925	305109.6
25.69537	297947.7
25.69823	302032.1
25.7011	306883.9
25.70395	305575.4
25.70682	303162.7
25.70968	300434
25.71255	309772
25.71542	312959.8
25.71828	293579.4
25.72115	304081.5
25.724	303141.8
25.72687	296469.5
25.72973	298189.2
25.7326	303639.9
25.73547	300267.6
25.73833	296627.5
25.74118	300430.7
25.74405	305876.7
25.74692	286542.2
25.74978	293156.9
25.75265	298007.3
25.75552	304030.1
25.75838	296471.2
25.76123	309510
25.7641	304625.1
25.76697	299370.5
25.76983	297016.1
25.7727	303236.5
25.77557	300781.6
25.77843	295029.9
25.78128	293248.8
25.78415	300771.2
25.78702	308006.1
25.78988	298885.5
25.79275	297868.8
25.79562	301779.2
25.79847	321483.2
25.80133	313801.8
25.8042	293895.8
25.80707	326496.9
25.80993	305287.5
25.8128	306203
25.81567	299882.1
25.81852	282739.1
25.82138	292106.7
25.82425	286968
25.82712	297583.5
25.82998	300762.3
25.83285	289459.5
25.83572	309175.8
25.83857	290817.2
25.84143	305932
25.8443	296992.4
25.84717	300835.6
25.85003	298094.4
25.8529	299541.5
25.85575	304461.5
25.85862	290269.7
25.86148	292335.5
25.86435	288689.3
25.86722	289520.6
25.87008	300571.7
25.87295	301218.5
25.8758	296372.4
25.87867	304498
25.88153	293186.3
25.8844	299030
25.88727	315021
25.89013	302687.7
25.893	298264.6
25.89585	294913.2
25.89872	299040.8
25.90158	305326.7
25.90445	308566.4
25.90732	296885.2
25.91018	303749.2
25.91303	300515.4
25.9159	296013.3
25.91877	296446.8
25.92163	302150.1
25.9245	297748.3
25.92737	310770.2
25.93023	300062.9
25.93308	299016.8
25.93595	301356.3
25.93882	302645.1
25.94168	293925.7
25.94455	304688.8
25.94742	306549.4
25.95028	309947.8
25.95313	288203.1
25.956	291065
25.95887	293979.9
25.96173	299535.8
25.9646	304681.6
25.96747	299956.4
25.97033	301297.2
25.97318	303926.8
25.97605	294962.2
25.97892	298488.6
25.98178	300847.3
25.98465	301228.8
25.98752	285291.4
25.99037	306845.8
25.99323	310540.8
25.9961	303912.6
25.99897	295084.4
26.00183	305801.3
26.0047	287985.5
26.00757	296596.5
26.01042	302612.4
26.01328	301016.1
26.01615	296427.8
26.01902	302327.9
26.02188	286437.2
26.02475	292274
26.02762	292972.7
26.03047	297054.8
26.03333	293767.3
26.0362	293842.7
26.03907	292488.1
26.04193	296068
26.0448	301866.6
26.04765	300645.5
26.05052	295368.8
26.05338	302047.9
26.05625	290880
26.05912	289760
26.06198	291868.6
26.06485	292561.5
26.0677	308241.1
26.07057	294888.3
26.07343	287105.3
26.0763	299588.1
26.07917	303568.5
26.08203	309915.2
26.08488	305841.8
26.08775	293294.6
26.09062	302626.4
26.09348	306622.7
26.09635	299534.9
26.09922	291891.7
26.10208	283409.6
26.10493	290707.1
26.1078	289621.3
26.11067	308271.9
26.11353	297381.2
26.1164	313637.4
26.11927	292322.7
26.12213	299104.8
26.12498	301655.6
26.12785	303764.5
26.13072	295817.7
26.13358	301003.2
26.13645	294777.4
26.13932	293270
26.14217	296349.3
26.14503	293348
26.1479	304995.8
26.15077	301799
26.15363	291134
26.1565	300413
26.15937	298531.7
26.16222	300166.4
26.16508	310740.4
26.16795	296584.4
26.17082	299524.8
26.17368	299888.9
26.17655	293892.5
26.17942	307099.3
26.18227	290311.7
26.18513	299812.3
26.188	301633.7
26.19087	295399.8
26.19373	310132.2
26.1966	308510.1
26.19945	317486.5
26.20232	307692
26.20518	307347.8
26.20805	296813.8
26.21092	308671.8
26.21378	299467.6
26.21665	306895.9
26.2195	292348.8
26.22237	308801.8
26.22523	300054.6
26.2281	298930.1
26.23097	299090.6
26.23383	309652.6
26.2367	320023.5
26.23955	292653
26.24242	300912.9
26.24528	298409.9
26.24815	293744.9
26.25102	292213
26.25388	303024.8
26.25675	299157.2
26.2596	313018.8
26.26247	311207
26.26533	290718.3
26.2682	290872.9
26.27107	317959.4
26.27393	301272.8
26.27678	317410.1
26.27965	290405.8
26.28252	296004.8
26.28538	313316
26.28825	291584.6
26.29112	300663.9
26.29398	297923.5
26.29683	301050.3
26.2997	305965.5
26.30257	307768
26.30543	301039.2
26.3083	307520.7
26.31117	303815.5
26.31403	311245.7
26.31688	303092.6
26.31975	290935
26.32262	296248.3
26.32548	304703.4
26.32835	307482.7
26.33122	306566.8
26.33407	311312.8
26.33693	298112.9
26.3398	295724.1
26.34267	306667
26.34553	299355.9
26.3484	305449.9
26.35127	297366.3
26.35412	305709.3
26.35698	305145.6
26.35985	316405
26.36272	305121.1
26.36558	283900.8
26.36845	296339.9
26.37132	288627.8
26.37417	302990.9
26.37703	299299.2
26.3799	301413.3
26.38277	302958
26.38563	299985.3
26.3885	318487.8
26.39137	297939.1
26.39422	322231.1
26.39708	300960.6
26.39995	294966.1
26.40282	299315.8
26.40568	290289.4
26.40855	296904.8
26.41142	292157.5
26.41427	286330.4
26.41713	293558.2
26.42	297474.8
26.42287	303785
26.42573	292142.6
26.4286	298958.6
26.43147	301793.4
26.43432	289861.3
26.43718	296239.1
26.44005	296353.7
26.44292	290708.3
26.44578	295476.1
26.44865	300743
26.45152	292666.9
26.45437	304852.4
26.45723	286322.7
26.4601	293249.5
26.46297	297912
26.46583	304938.7
26.4687	294001.4
26.47155	303897.9
26.47442	290613.9
26.47728	301681.6
26.48015	295164.2
26.48302	297013.5
26.48588	306989.3
26.48875	301180.9
26.4916	304485.5
26.49447	291745.7
26.49733	300091.8
26.5002	280480.8
26.50307	296743.6
26.50593	289136.8
26.5088	292501.6
26.51165	304746.8
26.51452	302501.3
26.51738	301330.2
26.52025	299932.7
26.52312	288447.1
26.52598	284238.7
26.52885	298542.3
26.5317	324731.7
26.53457	317851
26.53743	288559.1
26.5403	296563.1
26.54317	290221.8
26.54603	299921.1
26.5489	293151.6
26.55175	292703
26.55462	296774.9
26.55748	293032.6
26.56035	287295
26.56322	296725.1
26.56608	291918.5
26.56893	282805.7
26.5718	294741.2
26.57467	294156.8
26.57753	300799.5
26.5804	307367.3
26.58327	295377
26.58613	297619.9
26.58898	298079.1
26.59185	300143.5
26.59472	299500.1
26.59758	296688.5
26.60045	289788.8
26.60332	292120.4
26.60618	292220.2
26.60903	291124.8
26.6119	288021.8
26.61477	293994.5
26.61763	304627.5
26.6205	305673.2
26.62337	299051
26.62622	293317.4
26.62908	292145
26.63195	301100.8
26.63482	292748.8
26.63768	300493.5
26.64055	288730.7
26.64342	298048
26.64627	301619.2
26.64913	291162.3
26.652	311178.8
26.65487	292107.4
26.65773	293224.7
26.6606	284172.4
26.66347	287401.1
26.66632	298848.7
26.66918	285909.9
26.67205	287871.7
26.67492	292561.3
26.67778	297040.4
26.68065	290494.5
26.6835	282700.9
26.68637	299276.2
26.68923	303031.2
26.6921	293248.8
26.69497	289385
26.69783	298695.9
26.7007	301047.8
26.70355	294155.1
26.70642	287305.7
26.70928	286294.3
26.71215	298504.9
26.71502	290497.9
26.71788	293419.6
26.72073	298422.8
26.7236	299748.3
26.72647	304132
26.72933	288013.6
26.7322	292837.2
26.73507	294393.8
26.73793	294496.2
26.74078	288908.5
26.74365	291659.5
26.74652	291435.2
26.74938	302581.5
26.75225	281729.7
26.75512	296455.3
26.75798	298782.7
26.76083	289376.4
26.7637	292688.9
26.76657	297582.5
26.76943	297439.2
26.7723	289767.2
26.77517	287866.1
26.77803	291383.8
26.78088	290729.5
26.78375	297491.7
26.78662	300857.2
26.78948	297638.3
26.79235	291001.2
26.79522	295334.1
26.79807	295311.6
26.80093	304247.3
26.8038	306662.9
26.80667	294825.5
26.80953	288532.7
26.8124	297875.2
26.81527	296247.5
26.81812	281672.8
26.82098	304332.5
26.82385	299865.1
26.82672	306723.6
26.82958	292868.8
26.83245	286359
26.8353	299810.1
26.83817	302983.3
26.84103	292459.5
26.8439	299264.4
26.84677	291393.9
26.84963	292614.4
26.8525	281621.2
26.85535	284596.1
26.85822	293967.8
26.86108	282521
26.86395	300209.8
26.86682	289405.1
26.86968	288922.4
26.87255	310373.6
26.8754	310393.4
26.87827	291589.1
26.88113	290267.7
26.884	290230
26.88687	293864.2
26.88973	297183.5
26.89258	295893.2
26.89545	292791.2
26.89832	289901.6
26.90118	284292.1
26.90405	294229.6
26.90692	300737.7
26.90978	282755.1
26.91263	286113.5
26.9155	311591.7
26.91837	295102.2
26.92123	282559.3
26.9241	290316.2
26.92697	299960.3
26.92982	287652.2
26.93268	306700.3
26.93555	295761
26.93842	290643.1
26.94128	296738.4
26.94415	296648.8
26.94702	295436.3
26.94987	303615.7
26.95273	290845.1
26.9556	293989.1
26.95847	299250.9
26.96133	308058.3
26.9642	291428.1
26.96707	292966.3
26.96992	292321.6
26.97278	301037.7
26.97565	290600.5
26.97852	305943.8
26.98138	283483.2
26.98425	285508.4
26.9871	273166.9
26.98997	278685.3
26.99283	296027.7
26.9957	291893.5
26.99857	300852.8
27.00143	287578.7
27.0043	297046.7
27.00715	301140.8
27.01002	293390.3
27.01288	286742.1
27.01575	304165.7
27.01862	300934.4
27.02148	296968.4
27.02435	300140.4
27.0272	289757.6
27.03007	293897.8
27.03293	294160.8
27.0358	284660.1
27.03867	291690
27.04153	299848.9
27.04438	294628.7
27.04725	296597
27.05012	286714.8
27.05298	305215.1
27.05585	293415.7
27.05872	289785.9
27.06158	282775.1
27.06443	289205.6
27.0673	302791.5
27.07017	292014.1
27.07303	298822.7
27.0759	303505.7
27.07877	299846.3
27.08162	300001.9
27.08448	299091.6
27.08735	313940.4
27.09022	304328.4
27.09308	314651.9
27.09595	319569.8
27.09882	331685.6
27.10167	319793.7
27.10453	335517.2
27.1074	340010.8
27.11027	344407
27.11313	360488.2
27.116	366463.2
27.11887	367693.2
27.12172	380069.4
27.12458	406598.3
27.12745	438463.9
27.13032	436199.6
27.13318	463495.7
27.13605	494451.4
27.1389	515977.9
27.14177	532193.1
27.14463	578802.4
27.1475	585820.6
27.15037	633594.5
27.15323	689882.4
27.1561	723369.6
27.15895	769227.9
27.16182	797629.2
27.16468	843378.2
27.16755	914605.9
27.17042	966652.2
27.17328	1026113
27.17615	1059717
27.179	1084062
27.18187	1117557
27.18473	1148962
27.1876	1203156
27.19047	1214744
27.19333	1292138
27.1962	1312677
27.19905	1359426
27.20192	1371468
27.20478	1377933
27.20765	1407093
27.21052	1389144
27.21338	1404662
27.21625	1420046
27.2191	1393419
27.22197	1394928
27.22483	1363461
27.2277	1364616
27.23057	1321284
27.23343	1277029
27.2363	1245508
27.23915	1212905
27.24202	1152125
27.24488	1137340
27.24775	1110955
27.25062	1055963
27.25348	1019259
27.25635	963581.9
27.2592	933295.9
27.26207	886450.3
27.26493	847630.4
27.2678	809186.3
27.27067	783077.9
27.27353	730250.9
27.27638	731735.8
27.27925	672307.8
27.28212	653185.6
27.28498	601143.1
27.28785	624680
27.29072	574992.5
27.29358	540866.6
27.29643	538905.6
27.2993	505126.4
27.30217	482641.4
27.30503	481379.1
27.3079	460693.6
27.31077	452145.4
27.31363	431368.5
27.31648	425126.3
27.31935	434764.8
27.32222	416731.2
27.32508	412556.6
27.32795	396957.1
27.33082	389663.4
27.33368	391985.1
27.33653	378849.1
27.3394	384609.2
27.34227	363060.2
27.34513	360629.5
27.348	352322.9
27.35087	357244.2
27.35372	351920
27.35658	352552.5
27.35945	347199.7
27.36232	365897.1
27.36518	356819.2
27.36805	342337.8
27.37092	336002.7
27.37377	336967.4
27.37663	345437.5
27.3795	327835.6
27.38237	352241.1
27.38523	337382.1
27.3881	324074.7
27.39097	315755.4
27.39382	326815.9
27.39668	330118.7
27.39955	316907
27.40242	341682.2
27.40528	328074.2
27.40815	325098.8
27.41102	314333.8
27.41387	326957.2
27.41673	323577.9
27.4196	312328
27.42247	319231.3
27.42533	319330.8
27.4282	308050.9
27.43105	328220.3
27.43392	316250.6
27.43678	324986.8
27.43965	321378.4
27.44252	309830.8
27.44538	301937.2
27.44825	308438.2
27.4511	312499.7
27.45397	307606.5
27.45683	313227.8
27.4597	305425.1
27.46257	314566.8
27.46543	300097.2
27.46828	310960.8
27.47115	295567.3
27.47402	313279.3
27.47688	316423.2
27.47975	320113.6
27.48262	307382.6
27.48548	302803.6
27.48833	317446.6
27.4912	312711.7
27.49407	300970.4
27.49693	303877
27.4998	304804.8
27.50267	307762.8
27.50552	309354.8
27.50838	299961.8
27.51125	303087.2
27.51412	309234.6
27.51698	301182
27.51985	317821.9
27.52272	304203.2
27.52557	296340.4
27.52843	307305.3
27.5313	300172.6
27.53417	303301.7
27.53703	310597
27.5399	307987
27.54275	298748.4
27.54562	301049
27.54848	310104.5
27.55135	302603.1
27.55422	298959.7
27.55708	306887.4
27.55995	310034.3
27.5628	297731.6
27.56567	300556.6
27.56853	298759.9
27.5714	289532.9
27.57427	308245.2
27.57713	308156.7
27.57998	295891
27.58285	304854.8
27.58572	303167.4
27.58858	304658.3
27.59145	304874.1
27.59432	296710.6
27.59718	293117.4
27.60003	299256.3
27.6029	303706.7
27.60577	298532
27.60863	306155.3
27.6115	293513.3
27.61437	293847.8
27.61723	303792.1
27.62008	310569.6
27.62295	304604.7
27.62582	306356.7
27.62868	308494.4
27.63155	302497.1
27.63442	313526
27.63727	301727
27.64013	303018.7
27.643	312101
27.64587	304377.3
27.64873	307115.6
27.6516	300515.8
27.65447	301858.7
27.65732	291528.9
27.66018	291562.3
27.66305	303897.2
27.66592	291389
27.66878	302689.7
27.67165	299823.4
27.6745	290852.6
27.67737	290625.7
27.68023	302380.5
27.6831	300561.4
27.68597	295989.7
27.68883	303025.5
27.6917	305861.7
27.69455	303218.2
27.69742	297978.8
27.70028	302317.4
27.70315	290179.7
27.70602	312328.7
27.70888	294200.4
27.71173	303140.1
27.7146	300722.2
27.71747	284349.8
27.72033	284366.8
27.7232	304243.6
27.72607	308645.7
27.72893	299081.1
27.73178	297553.2
27.73465	283289.7
27.73752	299396.6
27.74038	292032.4
27.74325	301032.2
27.74612	281241.5
27.74898	290512.2
27.75183	295159.7
27.7547	299498.6
27.75757	289482.2
27.76043	280849.1
27.7633	300649.4
27.76617	294689
27.76902	295013.2
27.77188	293990.5
27.77475	299288.6
27.77762	289315.8
27.78048	298576.9
27.78335	300644.6
27.78622	296990.3
27.78907	295731.9
27.79193	299836.9
27.7948	288651.9
27.79767	290206.1
27.80053	297199
27.8034	299092.6
27.80625	303263.7
27.80912	291949.4
27.81198	293060
27.81485	295828.8
27.81772	303030.8
27.82058	304704
27.82345	310243.1
27.8263	292127.5
27.82917	287720.2
27.83203	309725
27.8349	315657.7
27.83777	293058.5
27.84063	296727.3
27.84348	287594
27.84635	296607
27.84922	302316.4
27.85208	301017.2
27.85495	296899.3
27.85782	295802.2
27.86068	297288.5
27.86353	302358.1
27.8664	292108.7
27.86927	295550
27.87213	294149.3
27.875	292307.8
27.87787	303457.1
27.88072	296222.2
27.88358	297583.6
27.88645	286545.5
27.88932	292800.2
27.89218	296432.8
27.89505	294573.9
27.89792	295736
27.90077	299427.1
27.90363	299725
27.9065	297017.3
27.90937	297148.2
27.91223	302836.3
27.9151	294431.9
27.91795	288991
27.92082	294245.7
27.92368	292927.4
27.92655	295244.7
27.92942	290555.8
27.93228	296450.4
27.93515	290938.6
27.938	294407.1
27.94087	296295.7
27.94373	292561.8
27.9466	294019.4
27.94947	296244.8
27.95233	301378.3
27.95518	291861.2
27.95805	293888.2
27.96092	306543.8
27.96378	296368.8
27.96665	300840.7
27.96952	295867.1
27.97238	283499.3
27.97523	287816.7
27.9781	311029.2
27.98097	301093.1
27.98383	286067.9
27.9867	303053.2
27.98957	297757.5
27.99242	286887.3
27.99528	306794.4
27.99815	296006.3
28.00102	300370
28.00388	293301.3
28.00675	293833.3
28.00962	294075.5
28.01247	286209.3
28.01533	318885
28.0182	281347.9
28.02107	291334.4
28.02393	299809
28.0268	284774.2
28.02965	288470.8
28.03252	278956.3
28.03538	295522.2
28.03825	292424.7
28.04112	297318.5
28.04398	291972.8
28.04685	305824.9
28.0497	290310.7
28.05257	299533.2
28.05543	285719.3
28.0583	293626.1
28.06117	296171.4
28.06403	299874.2
28.06688	302889.2
28.06975	297836.9
28.07262	293548.2
28.07548	298432.2
28.07835	303348.7
28.08122	297744.1
28.08408	290720.9
28.08693	298798.6
28.0898	289538.4
28.09267	300006.5
28.09553	307457.7
28.0984	305266.4
28.10127	295398.7
28.10412	289770.6
28.10698	288704.7
28.10985	302326.8
28.11272	309418.9
28.11558	301453.9
28.11845	302363.2
28.12132	310821
28.12417	296683.9
28.12703	296130.5
28.1299	292244.2
28.13277	305658.3
28.13563	290853.8
28.1385	303315.6
28.14137	276291.5
28.14422	309630.3
28.14708	292499.8
28.14995	293270.6
28.15282	292038
28.15568	304570.3
28.15855	287769.7
28.1614	304676.7
28.16427	284961.2
28.16713	300886.5
28.17	296835.7
28.17287	287080.3
28.17573	294873.5
28.1786	304258
28.18145	297955.3
28.18432	304649.6
28.18718	285770.6
28.19005	295483.7
28.19292	295473
28.19578	293025.7
28.19863	294084.3
28.2015	292842
28.20437	287799.6
28.20723	295721.6
28.2101	310869.6
28.21297	299893.3
28.21583	287653.1
28.21868	289348.1
28.22155	297180.3
28.22442	284135.1
28.22728	294215
28.23015	289633.2
28.23302	307949.2
28.23587	298626.3
28.23873	289852.7
28.2416	292649.8
28.24447	290943
28.24733	307622.8
28.2502	294304
28.25307	291789.1
28.25592	291370.9
28.25878	308782.4
28.26165	302851.8
28.26452	292020.6
28.26738	299479.3
28.27025	296505.9
28.2731	293371
28.27597	291778.4
28.27883	300800.2
28.2817	304243
28.28457	304925.9
28.28743	294063
28.2903	286988.9
28.29315	298831.2
28.29602	312219.3
28.29888	299001
28.30175	277273
28.30462	285178.5
28.30748	302845.7
28.31033	289418.6
28.3132	291655.3
28.31607	294482
28.31893	290406.8
28.3218	285467.8
28.32467	286174.3
28.32753	292324.4
28.33038	300350.6
28.33325	299638.5
28.33612	307637.3
28.33898	301017.8
28.34185	296778.9
28.34472	296791.9
28.34757	283389.5
28.35043	297189.2
28.3533	295628.2
28.35617	296049.6
28.35903	298533.1
28.3619	295317.8
28.36477	305970.4
28.36762	291012.7
28.37048	287012.3
28.37335	288675.4
28.37622	293103.5
28.37908	285740.4
28.38195	290733.3
28.38482	305566.2
28.38767	291270.1
28.39053	281693.5
28.3934	293646
28.39627	286113.5
28.39913	296415.8
28.402	301238.6
28.40485	298852.7
28.40772	284957
28.41058	285882.9
28.41345	295771.8
28.41632	287655.4
28.41918	292299.6
28.42205	292182.6
28.4249	295477.5
28.42777	293539
28.43063	291005.8
28.4335	294399
28.43637	281528.7
28.43923	281041.5
28.44208	290421.1
28.44495	288061.8
28.44782	295021
28.45068	303314.3
28.45355	305433.5
28.45642	302270.9
28.45928	292816.7
28.46213	285335.7
28.465	289070.1
28.46787	294100.7
28.47073	296321.8
28.4736	299243.2
28.47647	291793.8
28.47932	288519.3
28.48218	294688
28.48505	293067.5
28.48792	301108.1
28.49078	294158.7
28.49365	298546.2
28.49652	288604.8
28.49937	291815
28.50223	289213.5
28.5051	292533
28.50797	306364.9
28.51083	282834.1
28.5137	280527.7
28.51657	287584.8
28.51942	299120.3
28.52228	287452.6
28.52515	298520.3
28.52802	301057.4
28.53088	297387.9
28.53375	281974.1
28.5366	301327.5
28.53947	294847.2
28.54233	284999.8
28.5452	292807.7
28.54807	292427
28.55093	297976.7
28.5538	291768.1
28.55665	304789.3
28.55952	291829.9
28.56238	296342.3
28.56525	291666.3
28.56812	292311.1
28.57098	293686.2
28.57383	292844.1
28.5767	280754.4
28.57957	291789.8
28.58243	291175.7
28.5853	302181.3
28.58817	290385.7
28.59103	294893.9
28.59388	299132.4
28.59675	287922.7
28.59962	288281.5
28.60248	289639.3
28.60535	292866.2
28.60822	297662.4
28.61107	289106.8
28.61393	297875.8
28.6168	314291.7
28.61967	285697.2
28.62253	288423.9
28.6254	298228.5
28.62827	286194.3
28.63112	293796.6
28.63398	278051.8
28.63685	286589.8
28.63972	298260.4
28.64258	285947.1
28.64545	291934.4
28.6483	289131.3
28.65117	290453.7
28.65403	287536.5
28.6569	293654.7
28.65977	289753.6
28.66263	287083.7
28.6655	296369.3
28.66835	293645
28.67122	293465.2
28.67408	298573.4
28.67695	296772
28.67982	297603
28.68268	284614.9
28.68553	296437.1
28.6884	293360
28.69127	294446.8
28.69413	293458.4
28.697	289473.7
28.69987	292535.2
28.70273	288957.2
28.70558	285589.9
28.70845	302421.5
28.71132	303451.4
28.71418	299044.4
28.71705	295556.5
28.71992	289086.3
28.72277	293641.2
28.72563	279576.3
28.7285	300575.9
28.73137	293701.8
28.73423	287018.5
28.7371	282903.9
28.73997	288866.8
28.74282	289685.6
28.74568	293803
28.74855	294907.7
28.75142	282525.9
28.75428	284208.2
28.75715	289605.6
28.76	295409.6
28.76287	293572.8
28.76573	292647.3
28.7686	287610.3
28.77147	286163
28.77433	295445.2
28.7772	289838
28.78005	297086
28.78292	287207.9
28.78578	288300.1
28.78865	295603.2
28.79152	290991.8
28.79438	291298.1
28.79723	296024.6
28.8001	306785.2
28.80297	290105.4
28.80583	300957.8
28.8087	293238.8
28.81157	290943.3
28.81443	294943.3
28.81728	300834.8
28.82015	306000
28.82302	300955.5
28.82588	294835.4
28.82875	298133.5
28.83162	285491.5
28.83447	296111
28.83733	295193.9
28.8402	290151.4
28.84307	297507.3
28.84593	289708.7
28.8488	292657.4
28.85167	300342.5
28.85452	281370.4
28.85738	296155.4
28.86025	290050.4
28.86312	290773.3
28.86598	306084.6
28.86885	291778.2
28.8717	294961.1
28.87457	305590.8
28.87743	304619.7
28.8803	299905.9
28.88317	289219.2
28.88603	303519.3
28.8889	285761.2
28.89175	298208.5
28.89462	290253.9
28.89748	288459.7
28.90035	288147.4
28.90322	297388.4
28.90608	291099.9
28.90893	272125.8
28.9118	287014.1
28.91467	290012.3
28.91753	292815.8
28.9204	289083.2
28.92327	292755
28.92613	291213.4
28.92898	289261
28.93185	283352.7
28.93472	295140.6
28.93758	293910.6
28.94045	284118
28.94332	289047.8
28.94617	281080.7
28.94903	279982.2
28.9519	297477.4
28.95477	293903.2
28.95763	298369.9
28.9605	297267.8
28.96337	289979.4
28.96622	292951.8
28.96908	288646.8
28.97195	296999.1
28.97482	289157.4
28.97768	290635.2
28.98055	291715.3
28.9834	294263.8
28.98627	291027.5
28.98913	281517.7
28.992	302538.1
28.99487	282851.3
28.99773	293641.9
29.0006	291330.2
29.00345	292813.2
29.00632	283963.8
29.00918	294986.6
29.01205	284263.1
29.01492	284919.2
29.01778	306057.8
29.02063	287798.5
29.0235	291282
29.02637	292134.5
29.02923	291277
29.0321	295962.2
29.03497	300998
29.03783	291508
29.04068	293348.8
29.04355	284589.5
29.04642	283220.9
29.04928	283160.5
29.05215	300707.2
29.05502	288488.2
29.05787	285297.7
29.06073	303673
29.0636	291873.3
29.06647	285634.1
29.06933	293251.3
29.0722	284308.6
29.07507	290549.3
29.07792	297812.9
29.08078	298608.8
29.08365	295161
29.08652	298210.7
29.08938	303013.9
29.09225	296353.1
29.0951	289999.1
29.09797	301610.4
29.10083	293642.8
29.1037	283168.6
29.10657	292806.6
29.10943	297063.1
29.1123	286464.4
29.11515	298963.7
29.11802	297674.6
29.12088	298190.4
29.12375	289955.1
29.12662	300282.1
29.12948	286451.7
29.13233	297066.3
29.1352	305992.4
29.13807	291558.8
29.14093	308519.4
29.1438	303548.3
29.14667	296235.7
29.14953	299513.5
29.15238	300816.4
29.15525	304882.4
29.15812	305070
29.16098	298222.3
29.16385	296929.9
29.16672	306005.9
29.16957	296624.6
29.17243	303180.3
29.1753	292788.8
29.17817	299323.1
29.18103	291650.2
29.1839	289887.9
29.18677	302828.4
29.18962	305668
29.19248	304754.9
29.19535	292972.7
29.19822	299179.8
29.20108	296645.6
29.20395	300812.6
29.2068	292115.6
29.20967	299168.6
29.21253	307705.7
29.2154	306823.3
29.21827	302725.1
29.22113	291830.9
29.224	283980.4
29.22685	295400.1
29.22972	299850.8
29.23258	298728.4
29.23545	286092.7
29.23832	296917.6
29.24118	293800.8
29.24403	284909.9
29.2469	292035.9
29.24977	293987.7
29.25263	290299.1
29.2555	281664.4
29.25837	299567.5
29.26123	295437.4
29.26408	302336.8
29.26695	295694.8
29.26982	298022.9
29.27268	292680.6
29.27555	289866.7
29.27842	288651.6
29.28127	282012.7
29.28413	285715.5
29.287	295136.2
29.28987	299975.2
29.29273	295712.4
29.2956	285460.1
29.29847	283912.1
29.30132	296308
29.30418	288192.8
29.30705	291290.2
29.30992	290611.4
29.31278	287722.8
29.31565	283524
29.3185	286017.6
29.32137	283239.6
29.32423	303505.5
29.3271	297592.5
29.32997	290992.8
29.33283	281445.2
29.3357	292841.7
29.33855	294060.2
29.34142	291011.1
29.34428	290032.1
29.34715	282101.5
29.35002	282230.4
29.35288	291117.5
29.35573	287534.4
29.3586	276667
29.36147	300895.2
29.36433	300885
29.3672	287082.3
29.37007	288011.6
29.37293	295140.5
29.37578	303268.1
29.37865	289123.7
29.38152	293843.8
29.38438	309320.6
29.38725	297022.3
29.39012	285872
29.39298	297802
29.39583	292013.5
29.3987	291345.2
29.40157	292857.9
29.40443	277469.1
29.4073	282094.6
29.41017	290239
29.41302	293503.5
29.41588	290348
29.41875	296052.5
29.42162	287845.5
29.42448	286414.1
29.42735	292116.4
29.43022	297334.3
29.43307	302070.4
29.43593	292228.2
29.4388	292617.6
29.44167	293180.2
29.44453	294051.2
29.4474	294947.1
29.45025	302972.6
29.45312	284855.4
29.45598	297294.7
29.45885	286769.6
29.46172	283210.6
29.46458	293679.8
29.46745	289949.6
29.4703	288123.5
29.47317	282099.8
29.47603	291365.4
29.4789	306294.5
29.48177	288532.4
29.48463	282631.3
29.48748	300850.5
29.49035	290306.3
29.49322	296377.8
29.49608	291558.1
29.49895	280702.9
29.50182	297797.8
29.50468	287634.7
29.50753	291458.4
29.5104	286328.2
29.51327	292133.3
29.51613	287464.6
29.519	298058.3
29.52187	294384.3
29.52472	292108.4
29.52758	281922.2
29.53045	283320.2
29.53332	298986.5
29.53618	289017.8
29.53905	289075.1
29.54192	290633.4
29.54477	278933.3
29.54763	285403.5
29.5505	293074.5
29.55337	285902.8
29.55623	277667.7
29.5591	281596.7
29.56195	294166.8
29.56482	289776.2
29.56768	286897.8
29.57055	292309.9
29.57342	291143.1
29.57628	285328.1
29.57915	290307.7
29.582	295244.4
29.58487	291846.2
29.58773	293725.9
29.5906	294082.4
29.59347	297129.5
29.59633	303234.2
29.59918	281500.8
29.60205	280908.4
29.60492	286430.9
29.60778	287913.1
29.61065	295671.2
29.61352	277757.7
29.61638	303695.3
29.61923	293169.6
29.6221	285135
29.62497	288282.1
29.62783	294673.2
29.6307	288039.5
29.63357	296213.1
29.63642	301034.9
29.63928	284541.8
29.64215	287402
29.64502	284279.2
29.64788	299348.4
29.65075	287105.3
29.65362	280585.4
29.65647	295803.9
29.65933	294140.9
29.6622	299572
29.66507	298930.8
29.66793	298893.5
29.6708	289699.8
29.67365	285076
29.67652	306578.4
29.67938	299796.1
29.68225	288743
29.68512	286464.8
29.68798	297872.6
29.69085	282619.5
29.6937	295186.3
29.69657	286042.8
29.69943	285002.6
29.7023	285625.4
29.70517	292894.4
29.70803	292132.8
29.71088	293835.7
29.71375	278403.3
29.71662	287021.9
29.71948	291023.8
29.72235	290492.5
29.72522	286673.3
29.72808	284331.1
29.73093	293293.4
29.7338	291922.7
29.73667	281229.6
29.73953	284909.2
29.7424	310812.3
29.74527	311857.7
29.74812	276361.5
29.75098	287729.6
29.75385	296306.6
29.75672	292434.7
29.75958	297155.5
29.76245	287203.6
29.76532	292110
29.76817	280108.1
29.77103	291380.7
29.7739	274399.6
29.77677	284917.2
29.77963	292094.5
29.7825	281678.8
29.78535	291170
29.78822	292734.2
29.79108	285618.7
29.79395	281688.3
29.79682	288765.3
29.79968	290353.9
29.80255	282477
29.8054	287440.6
29.80827	298425.5
29.81113	301164.3
29.814	287740.8
29.81687	297477.4
29.81973	285898.9
29.82258	286459.2
29.82545	288086.7
29.82832	276479.4
29.83118	279074.2
29.83405	296920.2
29.83692	304760.3
29.83978	287728.3
29.84263	288366.8
29.8455	293647.5
29.84837	289719.5
29.85123	283735.9
29.8541	307849.1
29.85697	283847.3
29.85982	290175.2
29.86268	287707.6
29.86555	299435.6
29.86842	302527.7
29.87128	292063.7
29.87415	289298.8
29.87702	293400.3
29.87987	287520.7
29.88273	293047.2
29.8856	300477.8
29.88847	291939.2
29.89133	283183.4
29.8942	285896
29.89705	302643.1
29.89992	290132.4
29.90278	290643.9
29.90565	279766.7
29.90852	291712.8
29.91138	297706.8
29.91425	290967
29.9171	291755.4
29.91997	288916.6
29.92283	286140.3
29.9257	304893.8
29.92857	294440.2
29.93143	284565.7
29.93428	296744.9
29.93715	301009.7
29.94002	290350.1
29.94288	277466.1
29.94575	283497.2
29.94862	287321.7
29.95148	288383.5
29.95433	282321.9
29.9572	294014.6
29.96007	283711.7
29.96293	294830
29.9658	294140.2
29.96867	281973.3
29.97153	288233.3
29.97438	284619.3
29.97725	297226.4
29.98012	279264.7
29.98298	292146.4
29.98585	287758.7
29.98872	297025.2
29.99157	296357.2
29.99443	293040.5
29.9973	295501.8
30.00017	292590
30.00303	312257.4
30.0059	285680.7
30.00877	290217.3
30.01162	289192.9
30.01448	286844.5
30.01735	284535.8
30.02022	294791.7
30.02308	292211.7
30.02595	291060.9
30.0288	295495
30.03167	296651.8
30.03453	294849.3
30.0374	291748.8
30.04027	291253.5
30.04313	305193.4
30.046	289354.1
30.04885	284979.3
30.05172	276903.2
30.05458	290353.9
30.05745	280910.7
30.06032	292739.8
30.06318	292637.3
30.06603	305794
30.0689	294451.6
30.07177	271822.9
30.07463	284421.1
30.0775	286100.9
30.08037	296628.5
30.08323	281028
30.08608	285876.3
30.08895	294618.8
30.09182	287919.4
30.09468	295351.6
30.09755	290679.3
30.10042	280869.5
30.10327	284869.5
30.10613	286629.5
30.109	284716.9
30.11187	277161.6
30.11473	289349.8
30.1176	291810.2
30.12047	282690.2
30.12332	292335.4
30.12618	295566.8
30.12905	280815.2
30.13192	283934
30.13478	289131.7
30.13765	301468
30.1405	298400.2
30.14337	301335.8
30.14623	294162.6
30.1491	286736.5
30.15197	284681.8
30.15483	293452.5
30.1577	291875.3
30.16055	286918
30.16342	286754
30.16628	288475.2
30.16915	295649.7
30.17202	303990.4
30.17488	269389.6
30.17773	290107.7
30.1806	286933.1
30.18347	285998.8
30.18633	289639.3
30.1892	288573.3
30.19207	285137.7
30.19493	283493.2
30.19778	290790.4
30.20065	273559.9
30.20352	282473
30.20638	277194.5
30.20925	281856
30.21212	279612.1
30.21497	287722.8
30.21783	284407
30.2207	284461.4
30.22357	283826.3
30.22643	297780.8
30.2293	283549.1
30.23217	293554.3
30.23502	285444.8
30.23788	286499.5
30.24075	299715
30.24362	288636.4
30.24648	291657.5
30.24935	285304.7
30.2522	288308
30.25507	301056.4
30.25793	296357.1
30.2608	282371.8
30.26367	296241.9
30.26653	293912.7
30.2694	299944
30.27225	289029.2
30.27512	299029.3
30.27798	294224.8
30.28085	287017.4
30.28372	284548.6
30.28658	288196.5
30.28943	287271
30.2923	285349.2
30.29517	279402.2
30.29803	277131.5
30.3009	285470.3
30.30377	281759.4
30.30663	288864.9
30.30948	274108.5
30.31235	286419.1
30.31522	293013.7
30.31808	284065.8
30.32095	296931.3
30.32382	289703.3
30.32667	282751.7
30.32953	302773.9
30.3324	298003
30.33527	295783.2
30.33813	279288.4
30.341	297080.8
30.34387	293618.6
30.34672	291383.5
30.34958	276371.5
30.35245	285864.2
30.35532	284100.1
30.35818	282622.3
30.36105	309290.9
30.3639	289555.9
30.36677	297357.2
30.36963	298137.7
30.3725	285761.9
30.37537	284009
30.37823	291925.7
30.38108	296146.6
30.38395	297555.3
30.38682	288778
30.38968	292401.1
30.39255	290576.9
30.39542	287026.4
30.39828	288230.9
30.40113	280085.8
30.404	290053.4
30.40687	298184.3
30.40973	295350.9
30.4126	286092.6
30.41547	289260
30.41832	291888.6
30.42118	287291.2
30.42405	281328.9
30.42692	293333.3
30.42978	289726.8
30.43265	280555.3
30.43552	278757.1
30.43837	280184.3
30.44123	284182.7
30.4441	286001.5
30.44697	293749.9
30.44983	285166.2
30.4527	280126.5
30.45557	285633.2
30.45842	291261.1
30.46128	291616.8
30.46415	286821.9
30.46702	283772.2
30.46988	284311.3
30.47275	288246.8
30.4756	290851
30.47847	286509.8
30.48133	288906
30.4842	299571.1
30.48707	286813.8
30.48993	299056.7
30.4928	299756
30.49565	277209
30.49852	277017.8
30.50138	284803.6
30.50425	282572.4
30.50712	293602.8
30.50998	290515.6
30.51283	290149.3
30.5157	282367.3
30.51857	281094.9
30.52143	289965.6
30.5243	292728.7
30.52717	284134.2
30.53003	296997.2
30.53288	283584.7
30.53575	286004.1
30.53862	286084.2
30.54148	295310.5
30.54435	288457
30.54722	287837.2
30.55007	302717.6
30.55293	292318.5
30.5558	299542.7
30.55867	280384.5
30.56153	287671.3
30.5644	292621.8
30.56727	287547.5
30.57012	283393.8
30.57298	285694.4
30.57585	307660.7
30.57872	290788.8
30.58158	296705.5
30.58445	290054.6
30.5873	285066.5
30.59017	299884.1
30.59303	294620.7
30.5959	284036.4
30.59877	271721.1
30.60163	287710.6
30.6045	290917.8
30.60735	285690.4
30.61022	290968.4
30.61308	291476.8
30.61595	280288.2
30.61882	299815.1
30.62168	294593.3
30.62453	299129.5
30.6274	283824.7
30.63027	285754.9
30.63313	287252.8
30.636	288948.8
30.63887	274667.3
30.64173	299401.9
30.64458	283603.5
30.64745	288610.7
30.65032	291604.8
30.65318	292049.2
30.65605	287513.8
30.65892	292986.8
30.66177	287980
30.66463	277491.4
30.6675	282393
30.67037	286753.1
30.67323	286275.3
30.6761	297527.9
30.67897	294873.3
30.68182	289910.6
30.68468	294205.1
30.68755	292412.9
30.69042	285953.9
30.69328	285411.3
30.69615	301443.2
30.699	298946.5
30.70187	305700.5
30.70473	294858.6
30.7076	281746.1
30.71047	295719.7
30.71333	297747.7
30.7162	292512.8
30.71905	295771.4
30.72192	297890
30.72478	297917.6
30.72765	279718
30.73052	293784.2
30.73338	295732
30.73623	293476.4
30.7391	278057.9
30.74197	295017.7
30.74483	299472.8
30.7477	298461.5
30.75057	297840.5
30.75343	282108.3
30.75628	291200.1
30.75915	300183.9
30.76202	290281.8
30.76488	279018.2
30.76775	289274.8
30.77062	290739.2
30.77347	285750.1
30.77633	292931.3
30.7792	281108.8
30.78207	297584
30.78493	285623.1
30.7878	278730.3
30.79067	293638.8
30.79352	297164.7
30.79638	297662.6
30.79925	295346.4
30.80212	285171.7
30.80498	275232.7
30.80785	279156.3
30.8107	285418.9
30.81357	292272.1
30.81643	287621.9
30.8193	290942.2
30.82217	280662.2
30.82503	281935
30.8279	290084.2
30.83075	296378.1
30.83362	289553.6
30.83648	299030.4
30.83935	293699.4
30.84222	289681.9
30.84508	294860
30.84793	288518.4
30.8508	295096.1
30.85367	298573.2
30.85653	295672.6
30.8594	289705.1
30.86227	299261.3
30.86513	292015.4
30.86798	281579.4
30.87085	292409.1
30.87372	292688.4
30.87658	287354
30.87945	296361.3
30.88232	292637.7
30.88518	294269.1
30.88803	283371.7
30.8909	287349
30.89377	289539.2
30.89663	307481
30.8995	295123.8
30.90237	298024
30.90522	292955
30.90808	292078
30.91095	283565.5
30.91382	294348.6
30.91668	299405
30.91955	286839.2
30.92242	294095.7
30.92527	297806
30.92813	291113.2
30.931	291707.5
30.93387	290031.6
30.93673	287515.3
30.9396	295009.8
30.94245	292424.7
30.94532	291205.3
30.94818	288439.6
30.95105	287011.3
30.95392	286765.5
30.95678	289728.2
30.95965	308218.3
30.9625	285658.3
30.96537	287129.9
30.96823	299423.7
30.9711	284260.4
30.97397	281144.3
30.97683	286085
30.97968	290739
30.98255	290225.9
30.98542	278186.2
30.98828	295578.4
30.99115	308675.7
30.99402	296771.8
30.99688	298892.3
30.99973	286423.3
31.0026	287638.2
31.00547	290966.5
31.00833	287930.6
31.0112	283479.4
31.01407	285226.2
31.01692	269836.6
31.01978	281996.8
31.02265	286946.6
31.02552	295058.1
31.02838	281736.7
31.03125	281060.5
31.03412	297042.5
31.03697	297814.8
31.03983	296343.9
31.0427	286898.1
31.04557	285135.7
31.04843	277391
31.0513	282387.1
31.05415	276640.6
31.05702	290691.3
31.05988	297152.1
31.06275	306317.3
31.06562	287019.7
31.06848	286685.5
31.07135	294201.7
31.0742	312208.3
31.07707	291152.2
31.07993	308361
31.0828	295044
31.08567	286958.9
31.08853	280486
31.09138	293631.5
31.09425	296820.2
31.09712	286675.3
31.09998	296152.9
31.10285	290291.6
31.10572	290134.6
31.10858	288246.7
31.11143	290257
31.1143	293049.9
31.11717	293152.3
31.12003	291059.9
31.1229	292668.2
31.12577	284336.5
31.12862	291254.7
31.13148	283148.7
31.13435	291700.6
31.13722	278282
31.14008	289952.7
31.14295	289586.3
31.14582	282046.3
31.14867	286230.5
31.15153	295034.7
31.1544	280029.3
31.15727	300140.7
31.16013	287343.1
31.163	293036.3
31.16585	295125.3
31.16872	288928.9
31.17158	280682.2
31.17445	297493.4
31.17732	286922.5
31.18018	298269.4
31.18305	299352
31.1859	287400.8
31.18877	290122
31.19163	287137.4
31.1945	292260
31.19737	281678.1
31.20023	296798.4
31.20308	277960.8
31.20595	294367.9
31.20882	273697.1
31.21168	296206.5
31.21455	296802.8
31.21742	286560.8
31.22028	285706.5
31.22313	284383.4
31.226	289215.2
31.22887	283746
31.23173	277242.9
31.2346	293605.2
31.23747	289919.7
31.24033	286203.9
31.24318	275632.8
31.24605	291022.9
31.24892	291021.5
31.25178	291125.2
31.25465	292870
31.25752	300042.1
31.26037	301585.4
31.26323	283667.3
31.2661	280987.1
31.26897	287877.2
31.27183	280098.2
31.2747	289100.3
31.27755	277039.3
31.28042	283864.7
31.28328	281465.5
31.28615	277774.4
31.28902	274255.4
31.29188	292598.5
31.29475	299104.1
31.2976	279093.8
31.30047	288701.5
31.30333	290700
31.3062	288139.1
31.30907	281430.5
31.31193	290454.6
31.31478	285677
31.31765	297797.1
31.32052	273193.3
31.32338	291948.9
31.32625	282421.4
31.32912	272114
31.33198	294899.5
31.33483	295292.4
31.3377	285222.9
31.34057	282703.1
31.34343	289827.3
31.3463	289027.4
31.34917	285333.7
31.35202	293069
31.35488	290594.4
31.35775	284952.7
31.36062	291197.8
31.36348	289531.3
31.36635	296817.3
31.36922	290342.8
31.37207	286508.7
31.37493	288527
31.3778	281479.5
31.38067	286701.5
31.38353	287338.4
31.3864	282937.1
31.38925	292032.3
31.39212	297966.7
31.39498	285602.5
31.39785	300994.4
31.40072	294463.4
31.40358	290204.3
31.40645	284796
31.4093	285753.7
31.41217	285259.4
31.41503	298794.4
31.4179	288462
31.42077	292912.4
31.42363	288457.9
31.42648	290060.6
31.42935	293042.8
31.43222	275371.3
31.43508	282590
31.43795	290553.1
31.44082	287305.8
31.44368	285612.6
31.44653	278886.1
31.4494	287920.3
31.45227	283616.3
31.45513	286301.6
31.458	286609.2
31.46087	287249.9
31.46372	285327.1
31.46658	298403.8
31.46945	306603.5
31.47232	285936.3
31.47518	304774.8
31.47805	294129.5
31.48092	292694.8
31.48377	291010.3
31.48663	286200.4
31.4895	286575.2
31.49237	300174
31.49523	290931.7
31.4981	280174.7
31.50095	279314.7
31.50382	287262.5
31.50668	304209.5
31.50955	297764.1
31.51242	282040.8
31.51528	288457.6
31.51815	293548.7
31.521	288234.1
31.52387	300448
31.52673	283463.6
31.5296	293084.2
31.53247	298232.1
31.53533	292846.5
31.53818	295348
31.54105	291716.5
31.54392	298369.5
31.54678	301666.8
31.54965	293670.7
31.55252	302317
31.55538	278967.3
31.55823	293430.5
31.5611	287686.3
31.56397	283315.7
31.56683	284631
31.5697	307126.2
31.57257	295372.6
31.57543	284003.4
31.57828	292213.8
31.58115	291999.4
31.58402	298600.6
31.58688	285420.5
31.58975	295467.5
31.59262	292116
31.59547	284048.5
31.59833	288609
31.6012	296032.5
31.60407	285459.2
31.60693	288078.6
31.6098	288041.6
31.61267	295311.4
31.61552	291925.8
31.61838	287021.5
31.62125	298579.7
31.62412	285031.8
31.62698	287346.9
31.62985	293581.7
31.6327	290481.1
31.63557	294294.6
31.63843	295971.2
31.6413	288610.1
31.64417	296542.9
31.64703	298414.4
31.6499	301362.8
31.65275	297850.5
31.65562	293381.4
31.65848	295123.7
31.66135	279891.1
31.66422	281961.8
31.66708	299269.3
31.66993	295641.1
31.6728	294451.8
31.67567	286393.9
31.67853	293082.2
31.6814	289246.6
31.68427	293481.9
31.68713	297340.8
31.68998	297811.4
31.69285	282759.5
31.69572	297634.2
31.69858	300835.7
31.70145	295423.1
31.70432	280239.3
31.70717	297000.7
31.71003	289393.3
31.7129	303870.2
31.71577	288517.4
31.71863	298015.2
31.7215	286199.3
31.72437	285194.5
31.72722	296136
31.73008	274081.1
31.73295	283599.3
31.73582	287438.9
31.73868	288611.5
31.74155	283297.5
31.7444	284885
31.74727	301781.5
31.75013	288567.9
31.753	290409.9
31.75587	296256.6
31.75873	296375.8
31.7616	294438.9
31.76445	284082.6
31.76732	288287.8
31.77018	291387.2
31.77305	286823.7
31.77592	286198.2
31.77878	287050.4
31.78163	299118.1
31.7845	297362.3
31.78737	297349.3
31.79023	283534.6
31.7931	287115.1
31.79597	287855.3
31.79883	290739.6
31.80168	283477.3
31.80455	290556.5
31.80742	294397.1
31.81028	296120.5
31.81315	302065.3
31.81602	309292.7
31.81888	296660.6
31.82173	295575
31.8246	291288.8
31.82747	305849.8
31.83033	294887.6
31.8332	286570
31.83607	297596.2
31.83892	292737.9
31.84178	305937.4
31.84465	294821.6
31.84752	305059
31.85038	287536
31.85325	295170.3
31.85612	291171.7
31.85897	288311.7
31.86183	297075.2
31.8647	306489
31.86757	290013.3
31.87043	289155.5
31.8733	292963.8
31.87615	294350.4
31.87902	297443.3
31.88188	298233.5
31.88475	287867.8
31.88762	287562.5
31.89048	302792.7
31.89335	287380.9
31.8962	302056.7
31.89907	287658.7
31.90193	304529.1
31.9048	292722.8
31.90767	299532.6
31.91053	292234.8
31.91338	295914.2
31.91625	288794.4
31.91912	299044.2
31.92198	298577.7
31.92485	298212.2
31.92772	304312
31.93058	301748.5
31.93343	294590.8
31.9363	298691.3
31.93917	290457.5
31.94203	292804.4
31.9449	279597.1
31.94777	288515.8
31.95062	287725.3
31.95348	299880
31.95635	299724.3
31.95922	299942.7
31.96208	295640.9
31.96495	295059.7
31.96782	290736.1
31.97067	295127.6
31.97353	284185.7
31.9764	293577.4
31.97927	302431.5
31.98213	299569.9
31.985	291785.1
31.98785	291510.8
31.99072	290102
31.99358	299372.8
31.99645	277534.6
31.99932	301582.8
32.00218	288635
32.00505	291364.6
32.0079	301489.3
32.01077	277467.9
32.01363	298245.9
32.0165	296273.3
32.01937	315186
32.02223	302614.2
32.02508	295165.3
32.02795	289528.9
32.03082	311416
32.03368	287629.9
32.03655	286664.4
32.03942	296475.3
32.04228	295481.4
32.04513	293237.2
32.048	303308.4
32.05087	292292
32.05373	296555.3
32.0566	294323.7
32.05947	296595.5
32.06233	291749.8
32.06518	295609.5
32.06805	301950.6
32.07092	295366.2
32.07378	296141
32.07665	283817.8
32.07952	289000.8
32.08237	301285.1
32.08523	276915.1
32.0881	287045.4
32.09097	287738.7
32.09383	297826.5
32.0967	286748.1
32.09957	294945.1
32.10242	296957.8
32.10528	292668.4
32.10815	296882.9
32.11102	292578
32.11388	280301.6
32.11675	293635.1
32.1196	292878
32.12247	295838.5
32.12533	290885.7
32.1282	283557
32.13107	294595.8
32.13393	292754.5
32.1368	284769.3
32.13965	288513
32.14252	287393.5
32.14538	300447.7
32.14825	316128.2
32.15112	291704.8
32.15398	297556.9
32.15683	305480.5
32.1597	289360.2
32.16257	300834.3
32.16543	303947.1
32.1683	291546.3
32.17117	301548.5
32.17403	292879.4
32.17688	296572.1
32.17975	288329
32.18262	298537.5
32.18548	286578
32.18835	288985.3
32.19122	275264.5
32.19407	291447.8
32.19693	296035.8
32.1998	291967.8
32.20267	293608.7
32.20553	287184.7
32.2084	290390.6
32.21127	302949.1
32.21412	293447.5
32.21698	281227.4
32.21985	296749.6
32.22272	290764.7
32.22558	289749.6
32.22845	286034.4
32.23132	302987
32.23417	298356
32.23703	285317.3
32.2399	290987.7
32.24277	291568.2
32.24563	295028.5
32.2485	294249.4
32.25135	299465.8
32.25422	290784.1
32.25708	294960
32.25995	299103.8
32.26282	295163.3
32.26568	293721.8
32.26855	295128.4
32.2714	291085
32.27427	292038.2
32.27713	297461.7
32.28	286156.7
32.28287	298992
32.28573	285675.6
32.28858	296383
32.29145	298079.7
32.29432	293467
32.29718	294124.1
32.30005	295027.2
32.30292	284195.7
32.30578	297428.8
32.30863	282686
32.3115	286999.3
32.31437	291773.2
32.31723	284564.2
32.3201	293943.5
32.32297	278476.9
32.32582	290050.1
32.32868	303909.7
32.33155	289237.7
32.33442	295510.2
32.33728	291938.1
32.34015	286716.6
32.34302	286802.1
32.34587	295305.1
32.34873	291493
32.3516	297365.1
32.35447	303620.8
32.35733	279022.6
32.3602	288152.4
32.36305	288811.8
32.36592	282855.6
32.36878	288373.7
32.37165	286316.5
32.37452	286313.5
32.37738	289892.7
32.38025	285439.4
32.3831	293609.8
32.38597	285966.8
32.38883	294700.5
32.3917	297860.6
32.39457	293518.6
32.39743	292622.4
32.4003	281564.8
32.40315	297592.5
32.40602	295796.8
32.40888	296580.3
32.41175	287012.6
32.41462	295292.9
32.41748	299411
32.42033	287334.2
32.4232	289972.5
32.42607	291679.5
32.42893	294863.7
32.4318	300095.2
32.43467	294611.9
32.43753	289649.5
32.44038	299387.7
32.44325	287230.3
32.44612	298691.3
32.44898	290651.7
32.45185	294757
32.45472	291361.3
32.45757	288143.9
32.46043	297097.8
32.4633	291418.3
32.46617	289789.5
32.46903	279795.3
32.4719	280962.3
32.47477	302174.4
32.47762	288582.3
32.48048	289443.6
32.48335	287660
32.48622	289880.5
32.48908	295607
32.49195	297705.9
32.4948	297426.8
32.49767	298323.6
32.50053	298684.6
32.5034	284668.7
32.50627	280097.5
32.50913	281754.8
32.512	296119.2
32.51485	294912.8
32.51772	291088.6
32.52058	295341.3
32.52345	291620.1
32.52632	285190.3
32.52918	292185.8
32.53203	302959.8
32.5349	292264.3
32.53777	294180.4
32.54063	301923.1
32.5435	291135.8
32.54637	291668
32.54923	293579.5
32.55208	285071.6
32.55495	282696.7
32.55782	295290.3
32.56068	296843
32.56355	298179.7
32.56642	297901.6
32.56927	293128.4
32.57213	286858.6
32.575	281473.1
32.57787	296354.2
32.58073	281119
32.5836	298244.4
32.58647	286929.3
32.58932	299874.5
32.59218	289754
32.59505	276735.3
32.59792	291983.3
32.60078	296745
32.60365	295176.2
32.6065	285881.9
32.60937	277451.3
32.61223	287592.4
32.6151	289792.9
32.61797	297718.8
32.62083	282115.8
32.6237	279183.9
32.62655	283830.6
32.62942	287632.9
32.63228	290049.9
32.63515	299623.6
32.63802	282543.7
32.64088	292566.8
32.64375	284680.7
32.6466	287095.3
32.64947	287105.5
32.65233	289519.9
32.6552	283539.9
32.65807	282737.2
32.66093	283533.8
32.66378	293312.9
32.66665	307606.9
32.66952	300506
32.67238	304471.3
32.67525	292870.9
32.67812	288259.1
32.68098	284128.9
32.68383	293429.9
32.6867	275850.3
32.68957	283177.1
32.69243	296086.1
32.6953	295931.3
32.69817	298153.8
32.70102	295147.8
32.70388	285137.3
32.70675	290960.9
32.70962	285240.9
32.71248	282526
32.71535	278590
32.71822	287198
32.72107	295513.8
32.72393	291680.1
32.7268	299629.7
32.72967	282491.6
32.73253	306814.4
32.7354	287417
32.73825	275311.1
32.74112	287045.5
32.74398	296106.5
32.74685	287693.2
32.74972	282680.3
32.75258	294861.1
32.75545	294121.1
32.7583	286178.7
32.76117	286071.1
32.76403	293725.3
32.7669	294924.7
32.76977	278901.2
32.77263	299792.2
32.77548	284371.8
32.77835	304944.3
32.78122	291165.2
32.78408	293441.1
32.78695	300112.6
32.78982	300374.3
32.79268	286234.2
32.79553	283370.3
32.7984	278321.3
32.80127	283336.8
32.80413	291230.8
32.807	283165.8
32.80987	290872.3
32.81272	294831.7
32.81558	297212.4
32.81845	288990.5
32.82132	295384.3
32.82418	282148.6
32.82705	296828.7
32.82992	277381.2
32.83277	286726.3
32.83563	299623.8
32.8385	291235.9
32.84137	297222.6
32.84423	291829.4
32.8471	302644.5
32.84995	282738.1
32.85282	283886.3
32.85568	293330.2
32.85855	275265.5
32.86142	295300.8
32.86428	283564.2
32.86715	293059.2
32.87	283447.9
32.87287	290600.1
32.87573	295799.2
32.8786	296730.4
32.88147	286414.2
32.88433	288198.1
32.88718	292412.5
32.89005	297490.1
32.89292	286138.9
32.89578	298873.2
32.89865	291540.3
32.90152	286093.5
32.90438	301537.4
32.90723	291824.3
32.9101	285237.9
32.91297	301821.8
32.91583	283435.7
32.9187	287073
32.92157	294939.4
32.92442	287449.1
32.92728	288765
32.93015	285549.9
32.93302	279338.9
32.93588	298217.3
32.93875	286825.8
32.94162	287611.8
32.94447	287032.7
32.94733	285321.3
32.9502	289506.5
32.95307	282850.7
32.95593	292252.7
32.9588	302837.3
32.96165	284403.7
32.96452	289159.5
32.96738	289255.5
32.97025	290834.3
32.97312	287966.4
32.97598	291296.3
32.97885	290397.5
32.9817	281714.4
32.98457	278610.9
32.98743	293216
32.9903	294142.2
32.99317	290891.7
32.99603	292421.2
32.99888	288797.9
33.00175	296697.4
33.00462	294529.5
33.00748	279980.1
33.01035	284832.8
33.01322	289853.2
33.01608	290788.9
33.01893	295740.3
33.0218	284812.6
33.02467	296060.2
33.02753	289480.8
33.0304	287151.5
33.03327	297688.4
33.03612	308120.6
33.03898	293861.5
33.04185	287085.8
33.04472	295469.2
33.04758	293361
33.05045	283743.6
33.05332	285184.1
33.05617	282389.3
33.05903	284833.5
33.0619	284548.9
33.06477	283724.7
33.06763	286868.7
33.0705	277219.6
33.07335	280240
33.07622	297977.4
33.07908	296977.5
33.08195	299631.4
33.08482	296854.9
33.08768	295258
33.09055	285950.5
33.0934	278650.2
33.09627	287999.8
33.09913	290319.4
33.102	289944.5
33.10487	290981.6
33.10773	301170.7
33.11058	287648.3
33.11345	290657.1
33.11632	292899.9
33.11918	299792.6
33.12205	289464.4
33.12492	280306.6
33.12778	287452.1
33.13063	288852.9
33.1335	286747.2
33.13637	290668.2
33.13923	282597.8
33.1421	279781.9
33.14497	309358.5
33.14783	296059.2
33.15068	295886.9
33.15355	287543.3
33.15642	292420.8
33.15928	290922.4
33.16215	298185.8
33.16502	290605.8
33.16787	284830.8
33.17073	287239.9
33.1736	301703.3
33.17647	282711.1
33.17933	276796.5
33.1822	290454.4
33.18507	289591.4
33.18792	285470.5
33.19078	286436.7
33.19365	288122.8
33.19652	286392.4
33.19938	283933.8
33.20225	287088.3
33.2051	289555.7
33.20797	296017.2
33.21083	298253.8
33.2137	300343.9
33.21657	293944.3
33.21943	285983.8
33.2223	294009.3
33.22515	288918.1
33.22802	290633.3
33.23088	307301.6
33.23375	301795.6
33.23662	288130.1
33.23948	284766.4
33.24233	290247.3
33.2452	293196.2
33.24807	282726.7
33.25093	302511.2
33.2538	289206.6
33.25667	292452.2
33.25953	302468.5
33.26238	291348.5
33.26525	271892.1
33.26812	285247
33.27098	294140
33.27385	301658.1
33.27672	282353.9
33.27957	294846.9
33.28243	287835.3
33.2853	305873.7
33.28817	279720.8
33.29103	287074.2
33.2939	282485.9
33.29677	286548.5
33.29962	277679.8
33.30248	299579.4
33.30535	282187.3
33.30822	294323.1
33.31108	285202.5
33.31395	287514.3
33.3168	295692.9
33.31967	299892.5
33.32253	285888.9
33.3254	285186.6
33.32827	298287.3
33.33113	295177
33.334	286671.3
33.33685	297871.7
33.33972	291580.8
33.34258	284344
33.34545	291590.9
33.34832	288905.9
33.35118	286796.4
33.35403	294145.5
33.3569	285814
33.35977	299781.8
33.36263	292432.8
33.3655	294062.9
33.36837	283129.5
33.37123	296538.9
33.37408	282361.5
33.37695	289977.5
33.37982	296175.6
33.38268	296894
33.38555	288443.1
33.38842	282603.2
33.39127	296866.5
33.39413	289816
33.397	297214.1
33.39987	284088.7
33.40273	292689.2
33.4056	293560.9
33.40847	293059.8
33.41132	281762.9
33.41418	293040.2
33.41705	288662.8
33.41992	287804.8
33.42278	281080.2
33.42565	288108.6
33.4285	287077.4
33.43137	285919.5
33.43423	293718.7
33.4371	285436.8
33.43997	288469.8
33.44283	291972.9
33.4457	289064.9
33.44855	288006
33.45142	296923.7
33.45428	288186.3
33.45715	313722.3
33.46002	287172.5
33.46288	293740.2
33.46573	285607
33.4686	287382.9
33.47147	305411.9
33.47433	289940
33.4772	295960.1
33.48007	301114.5
33.48293	286912.8
33.48578	288279.8
33.48865	281037.2
33.49152	288804.2
33.49438	295096.9
33.49725	283488.9
33.50012	292073
33.50297	296858.5
33.50583	288407.8
33.5087	294850.1
33.51157	288862.8
33.51443	288212.3
33.5173	317194
33.52017	285625.5
33.52302	300885.4
33.52588	292868.6
33.52875	282439.3
33.53162	281925.1
33.53448	300522.3
33.53735	277819.8
33.5402	281720.2
33.54307	285659.8
33.54593	276159.3
33.5488	281918.6
33.55167	282673.6
33.55453	281556.3
33.5574	291938
33.56025	293804.3
33.56312	281557.5
33.56598	288624.4
33.56885	293295.6
33.57172	298655.6
33.57458	274749.5
33.57743	294462
33.5803	307484.4
33.58317	286155
33.58603	288146.4
33.5889	273658.5
33.59177	282484.4
33.59463	288242.6
33.59748	287784.2
33.60035	296613.3
33.60322	293934.6
33.60608	297764.7
33.60895	282290.4
33.61182	281749.4
33.61467	294490.7
33.61753	283899
33.6204	280770.3
33.62327	292684.3
33.62613	302339.7
33.629	284938.7
33.63187	293794.6
33.63472	284609.8
33.63758	285950.4
33.64045	298551.1
33.64332	285733
33.64618	283768.7
33.64905	293466.3
33.6519	297198.2
33.65477	286438.1
33.65763	297776.9
33.6605	277462
33.66337	286740.8
33.66623	279750.1
33.6691	299554
33.67195	282355.3
33.67482	287682.4
33.67768	288242.3
33.68055	288656
33.68342	293553.6
33.68628	289196
33.68913	289680.5
33.692	286601.5
33.69487	286858.3
33.69773	291085.2
33.7006	292381.2
33.70347	289819.1
33.70633	281105.9
33.70918	284338.8
33.71205	291259.1
33.71492	298532.6
33.71778	290975.1
33.72065	276667.8
33.72352	279209.3
33.72637	286668.3
33.72923	290889.9
33.7321	312470
33.73497	292439.6
33.73783	290079
33.7407	295460
33.74357	292054.7
33.74642	287434.8
33.74928	283526.1
33.75215	284405.8
33.75502	290788.1
33.75788	299205
33.76075	290549.5
33.76362	290567.4
33.76647	286426.8
33.76933	286618.8
33.7722	285768.3
33.77507	268658.4
33.77793	282454.6
33.7808	299433.5
33.78365	292105.3
33.78652	296032.4
33.78938	289319
33.79225	283721.3
33.79512	302615.8
33.79798	289026
33.80085	288428.2
33.8037	287326.5
33.80657	290782.7
33.80943	290760.1
33.8123	281041.3
33.81517	288537
33.81803	283986.6
33.82088	297056
33.82375	278136.9
33.82662	295826
33.82948	301381.4
33.83235	295668.8
33.83522	275035.4
33.83808	296965
33.84093	286137.6
33.8438	291299.1
33.84667	298952.5
33.84953	293498.4
33.8524	290094
33.85527	291557.1
33.85812	288781.7
33.86098	301488.9
33.86385	288066.4
33.86672	298628.3
33.86958	288386.3
33.87245	292015.3
33.87532	276804
33.87817	284098.1
33.88103	272662.3
33.8839	292189
33.88677	301073.8
33.88963	291239.5
33.8925	293955.6
33.89535	289709.4
33.89822	285373.8
33.90108	302529.5
33.90395	283167.9
33.90682	304612.7
33.90968	289533.5
33.91255	305065.4
33.9154	292018.4
33.91827	281753.8
33.92113	291000.4
33.924	283106.4
33.92687	295422.4
33.92973	280685.9
33.93258	275052.3
33.93545	290162.4
33.93832	294653.6
33.94118	285752
33.94405	292279.5
33.94692	294372.5
33.94978	290190.8
33.95263	282485.9
33.9555	286616.6
33.95837	281369
33.96123	280647
33.9641	278490.4
33.96697	284232.6
33.96982	296016.8
33.97268	294690.6
33.97555	301187.6
33.97842	285032.1
33.98128	292617.2
33.98415	286389.4
33.98702	283587
33.98987	295652.8
33.99273	301813.7
33.9956	289920
33.99847	287212.1
34.00133	291169.3
34.0042	292237.4
34.00705	291561.3
34.00992	276677.4
34.01278	286607.7
34.01565	288456.8
34.01852	293721.1
34.02138	298477.5
34.02425	289996.3
34.0271	274824.3
34.02997	288681.1
34.03283	284049.4
34.0357	291330.3
34.03857	291789.3
34.04143	282867.5
34.04428	290310.1
34.04715	279268.8
34.05002	284928.2
34.05288	284613.6
34.05575	290313.2
34.05862	286005.7
34.06148	292184.5
34.06433	298996.2
34.0672	286138.5
34.07007	295805.6
34.07293	293270.4
34.0758	300990.9
34.07867	289060
34.08152	284620.5
34.08438	279505.5
34.08725	280765.7
34.09012	283713.3
34.09298	278613.8
34.09585	284609
34.09872	301047.9
34.10157	295228.9
34.10443	285320.5
34.1073	286833.3
34.11017	286780.9
34.11303	284819.6
34.1159	292087
34.11875	283308.4
34.12162	296095.5
34.12448	287363
34.12735	298550.2
34.13022	290349.4
34.13308	292695.7
34.13595	295880.2
34.1388	285673.7
34.14167	287519.1
34.14453	296611.7
34.1474	279424.3
34.15027	287002.3
34.15313	277187.4
34.15598	296958.8
34.15885	301823.6
34.16172	296941.6
34.16458	283319
34.16745	288076.5
34.17032	296560
34.17317	302904.6
34.17603	303087.5
34.1789	290133.5
34.18177	285241.7
34.18463	283618.6
34.1875	291012.5
34.19037	300415.8
34.19322	280815.3
34.19608	295205.9
34.19895	271910.8
34.20182	292611.4
34.20468	291738.2
34.20755	300837.8
34.2104	302252.6
34.21327	300088.8
34.21613	294657.1
34.219	302782.3
34.22187	285801.9
34.22473	288240
34.2276	290615
34.23045	295632.7
34.23332	301868.9
34.23618	297048.5
34.23905	288552.4
34.24192	295130.8
34.24478	297755.8
34.24763	291493.9
34.2505	316683.2
##END